Data from Subt14__3__10-11-33-856.txt Node

Date: Mon Feb 19 10:11:33 CET 2024
User: Versuch 234
Spectrometer: USB4F03543
Trigger mode: 4
Integration Time (sec): 5,000000E-2
Scans to average: 10
Electric dark correction enabled: true
Nonlinearity correction enabled: false
Boxcar width: 0
XAxis mode: Wavelengths
Number of Pixels in Spectrum: 3648
>>>>>Begin Spectral Data<<<<<
179,969	31,37
180,181	31,37
180,394	31,37
180,606	87,69
180,819	73,15
181,031	-17,58
181,243	-20,24
181,456	8,84
181,668	-16,35
181,88	-3,65
182,093	22,36
182,305	25,63
182,518	14,17
182,73	-5,7
182,942	14,17
183,155	-16,14
183,367	-5,5
183,579	-22,08
183,791	-17,17
184,004	-2,01
184,216	24,61
184,428	20,51
184,641	30,14
184,853	6,59
185,065	0,44
185,277	-4,06
185,49	9,86
185,702	-6,11
185,914	29,73
186,126	-3,65
186,338	-12,66
186,551	30,34
186,763	33,01
186,975	14,57
187,187	9,05
187,399	31,78
187,612	14,37
187,824	-2,01
188,036	-5,29
188,248	-5,5
188,46	0,65
188,672	-2,01
188,885	17,44
189,097	4,13
189,309	-4,27
189,521	3,93
189,733	20,92
189,945	10,27
190,157	-3,04
190,369	25,84
190,581	13,35
190,794	-31,5
191,006	48,37
191,218	16,62
191,43	8,84
191,642	34,44
191,854	31,37
192,066	-8,16
192,278	-18,6
192,49	26,25
192,702	-4,88
192,914	-13,07
193,126	-10,21
193,338	10,07
193,55	4,54
193,762	-1,19
193,974	23,79
194,186	1,67
194,398	5,36
194,61	-16,76
194,822	27,27
195,034	4,95
195,246	-1,81
195,457	30,34
195,669	-13,28
195,881	-19,42
196,093	9,66
196,305	23,79
196,517	23,79
196,729	29,12
196,941	-12,66
197,153	-14,1
197,365	-26,38
197,576	35,67
197,788	20,31
198	-28,23
198,212	-17,58
198,424	4,54
198,636	-8,57
198,847	24,61
199,059	20,92
199,271	0,65
199,483	-5,9
199,695	15,6
199,906	-36,01
200,118	21,33
200,33	13,14
200,542	-99,7
200,753	12,73
200,965	38,13
201,177	13,76
201,389	-9,39
201,6	58,2
201,812	-31,91
202,024	26,04
202,235	32,6
202,447	24,2
202,659	-4,06
202,871	7,41
203,082	25,63
203,294	9,05
203,506	10,89
203,717	-10,82
203,929	-40,52
204,141	18,88
204,352	6,38
204,564	-0,58
204,775	9,66
204,987	-12,05
205,199	-10,41
205,41	-8,57
205,622	8,64
205,833	31,16
206,045	-30,48
206,257	31,16
206,468	27,27
206,68	6,59
206,891	2,08
207,103	6,38
207,314	43,66
207,526	25,63
207,737	30,55
207,949	10,27
208,16	-21,67
208,372	-8,57
208,583	13,76
208,795	37,51
209,006	16,01
209,218	-1,81
209,429	18,47
209,641	17,03
209,852	16,42
210,064	16,01
210,275	44,88
210,487	-8,57
210,698	1,47
210,909	-12,46
211,121	-5,9
211,332	1,67
211,544	1,26
211,755	-13,69
211,966	-5,7
212,178	17,44
212,389	-28,23
212,6	35,26
212,812	-19,83
213,023	-5,29
213,234	3,11
213,446	17,65
213,657	26,04
213,868	-10,21
214,08	-2,83
214,291	1,06
214,502	-8,77
214,714	-18,81
214,925	37,92
215,136	19,49
215,347	0,24
215,559	42,63
215,77	16,42
215,981	-4,47
216,192	18,06
216,404	6,79
216,615	1,47
216,826	15,19
217,037	2,49
217,249	2,49
217,46	-32,32
217,671	18,06
217,882	-10
218,093	40,79
218,304	-11,64
218,516	-0,58
218,727	-6,52
218,938	38,95
219,149	-20,86
219,36	1,06
219,571	20,92
219,782	17,85
219,993	-2,22
220,205	16,42
220,416	9,86
220,627	-1,6
220,838	-15,33
221,049	-22,29
221,26	-9,8
221,471	45,7
221,682	-7,95
221,893	-20,24
222,104	27,07
222,315	38,33
222,526	-4,88
222,737	22,97
222,948	31,98
223,159	17,65
223,37	6,18
223,581	30,55
223,792	5,15
224,003	-3,45
224,214	14,37
224,425	1,26
224,636	40,99
224,847	-5,29
225,058	22,97
225,269	21,74
225,48	-3,86
225,691	48,78
225,902	4,54
226,112	-12,05
226,323	18,47
226,534	-11,02
226,745	-5,29
226,956	29,52
227,167	10,07
227,378	-5,7
227,589	-0,58
227,799	-5,09
228,01	18,06
228,221	52,87
228,432	32,8
228,643	2,08
228,853	8,02
229,064	16,62
229,275	29,32
229,486	27,89
229,697	28,91
229,907	3,72
230,118	18,06
230,329	-7,13
230,54	8,64
230,75	18,26
230,961	-14,1
231,172	-10
231,383	42,63
231,593	16,83
231,804	-3,04
232,015	4,13
232,225	-19,83
232,436	34,64
232,647	-13,48
232,857	-16,76
233,068	13,35
233,279	-17,99
233,489	-0,79
233,7	4,74
233,91	25,63
234,121	7,2
234,332	13,96
234,542	16,01
234,753	22,56
234,964	-0,38
235,174	7
235,385	13,35
235,595	20,31
235,806	9,05
236,016	0,65
236,227	52,26
236,437	-3,86
236,648	37,72
236,858	4,74
237,069	10,89
237,279	40,58
237,49	38,13
237,7	0,03
237,911	6,18
238,121	2,49
238,332	21,13
238,542	-8,57
238,753	7,2
238,963	38,13
239,174	5,15
239,384	-8,57
239,595	16,83
239,805	58,61
240,015	21,13
240,226	2,49
240,436	12,32
240,647	-14,71
240,857	46,52
241,067	3,93
241,278	-49,32
241,488	30,34
241,698	4,33
241,909	16,01
242,119	19,9
242,329	-38,67
242,54	-1,19
242,75	-3,65
242,96	25,63
243,171	-1,81
243,381	-8,57
243,591	13,96
243,801	8,84
244,012	13,14
244,222	11,71
244,432	27,48
244,642	15,6
244,853	4,54
245,063	13,35
245,273	-2,42
245,483	14,37
245,694	0,65
245,904	3,31
246,114	-20,86
246,324	20,51
246,534	-5,5
246,744	22,15
246,955	50,21
247,165	-36,21
247,375	-30,89
247,585	32,8
247,795	-21,67
248,005	13,14
248,215	-7,13
248,425	-4,88
248,636	-21,26
248,846	20,1
249,056	40,38
249,266	23,59
249,476	-2,22
249,686	15,19
249,896	25,22
250,106	34,64
250,316	3,52
250,526	-1,81
250,736	36,28
250,946	4,74
251,156	-0,79
251,366	1,26
251,576	11,3
251,786	9,25
251,996	14,78
252,206	8,84
252,416	-6,93
252,626	17,03
252,836	45,09
253,046	6,18
253,256	-8,57
253,466	37,92
253,676	9,66
253,885	-22,9
254,095	13,76
254,305	15,19
254,515	-6,52
254,725	10,48
254,935	23,79
255,145	10,27
255,355	12,73
255,564	4,54
255,774	31,16
255,984	-3,45
256,194	8,02
256,404	-14,1
256,614	22,56
256,823	-13,89
257,033	-14,71
257,243	33,42
257,453	7,41
257,662	22,56
257,872	8,23
258,082	38,13
258,292	30,14
258,501	-24,13
258,711	-37,03
258,921	-23,93
259,131	45,7
259,34	-4,88
259,55	5,77
259,76	27,48
259,969	-8,57
260,179	16,01
260,389	11,09
260,598	-22,49
260,808	-15,53
261,018	17,65
261,227	9,45
261,437	32,6
261,647	-7,95
261,856	12,53
262,066	13,55
262,275	-39,29
262,485	15,39
262,694	-4,06
262,904	20,51
263,114	3,72
263,323	18,88
263,533	4,54
263,742	18,47
263,952	-5,09
264,161	26,66
264,371	-31,91
264,58	-0,38
264,79	40,58
264,999	25,22
265,209	5,56
265,418	3,72
265,628	18,06
265,837	45,7
266,047	14,98
266,256	-11,23
266,466	32,8
266,675	-27,61
266,884	23,38
267,094	-10,82
267,303	-6,72
267,513	33,01
267,722	-14,51
267,931	18,47
268,141	25,84
268,35	21,54
268,559	-10,82
268,769	39,15
268,978	15,19
269,187	4,74
269,397	5,77
269,606	37,1
269,815	35,05
270,025	2,08
270,234	20,31
270,443	7,82
270,653	-23,52
270,862	13,96
271,071	14,57
271,28	18,26
271,49	16,83
271,699	3,72
271,908	13,14
272,117	-1,4
272,327	24
272,536	0,24
272,745	-6,11
272,954	13,35
273,163	29,32
273,372	27,27
273,582	37,72
273,791	16,21
274	-24,95
274,209	0,65
274,418	22,15
274,627	-25,16
274,836	-0,79
275,046	14,17
275,255	20,51
275,464	24,61
275,673	15,39
275,882	-2,22
276,091	34,24
276,3	33,62
276,509	0,03
276,718	-4,27
276,927	14,57
277,136	1,88
277,345	15,39
277,554	0,03
277,763	-6,52
277,972	14,57
278,181	-6,93
278,39	12,32
278,599	6,18
278,808	18,26
279,017	-22,9
279,226	41,4
279,435	26,45
279,644	8,43
279,853	-44,2
280,062	-12,05
280,271	22,56
280,48	17,44
280,688	10,07
280,897	-10,62
281,106	8,43
281,315	37,92
281,524	13,35
281,733	54,71
281,942	15,6
282,151	9,86
282,359	-4,88
282,568	18,47
282,777	-11,43
282,986	22,97
283,195	2,7
283,403	28,09
283,612	21,13
283,821	23,38
284,03	-14,51
284,238	35,46
284,447	-7,54
284,656	20,72
284,865	-32,73
285,073	12,12
285,282	13,55
285,491	19,29
285,699	38,95
285,908	-7,95
286,117	12,12
286,325	-11,64
286,534	-6,72
286,743	9,45
286,951	-1,6
287,16	-15,74
287,369	17,65
287,577	-13,07
287,786	37,1
287,995	8,64
288,203	45,91
288,412	11,91
288,62	21,74
288,829	29,12
289,037	23,38
289,246	17,03
289,455	14,78
289,663	26,25
289,872	18,06
290,08	22,56
290,289	16,42
290,497	34,64
290,706	1,88
290,914	7,41
291,123	29,73
291,331	41,2
291,54	-27,41
291,748	-34,17
291,957	-1,4
292,165	-19,22
292,373	17,03
292,582	17,03
292,79	14,98
292,999	-30,28
293,207	5,56
293,415	22,15
293,624	51,44
293,832	1,88
294,041	-11,23
294,249	-0,79
294,457	42,84
294,666	20,31
294,874	18,67
295,082	-0,99
295,291	8,23
295,499	12,32
295,707	12,73
295,915	5,77
296,124	-13,48
296,332	43,45
296,54	23,59
296,749	6,38
296,957	7
297,165	26,45
297,373	-1,6
297,581	34,85
297,79	-10,82
297,998	25,02
298,206	26,25
298,414	18,88
298,622	4,95
298,831	10,89
299,039	8,64
299,247	-8,36
299,455	2,7
299,663	-33,35
299,871	28,71
300,08	12,12
300,288	12,53
300,496	11,5
300,704	33,42
300,912	34,24
301,12	-10
301,328	14,57
301,536	17,24
301,744	34,24
301,952	-9,8
302,16	43,25
302,368	24,2
302,576	1,88
302,784	21,33
302,992	44,48
303,2	27,07
303,408	8,02
303,616	-2,01
303,824	-4,06
304,032	-18,4
304,24	22,15
304,448	11,91
304,656	14,98
304,864	19,49
305,072	2,08
305,28	14,57
305,488	17,44
305,696	10,07
305,904	4,95
306,111	40,17
306,319	14,37
306,527	25,02
306,735	1,88
306,943	15,39
307,151	4,13
307,359	18,67
307,566	-6,93
307,774	-2,42
307,982	0,65
308,19	18,26
308,398	30,34
308,605	-6,72
308,813	30,14
309,021	8,02
309,229	12,12
309,436	17,65
309,644	3,93
309,852	22,77
310,06	3,93
310,267	21,95
310,475	19,08
310,683	-0,38
310,89	-3,86
311,098	12,73
311,306	21,33
311,513	17,24
311,721	40,79
311,929	44,27
312,136	62,09
312,344	30,55
312,552	51,23
312,759	120,05
312,967	78,88
313,174	55,94
313,382	59,02
313,589	29,73
313,797	-7,13
314,005	22,97
314,212	27,27
314,42	-10,41
314,627	45,7
314,835	31,16
315,042	35,67
315,25	43,45
315,457	30,96
315,665	60,65
315,872	4,13
316,08	-6,31
316,287	-2,83
316,495	-63,66
316,702	19,49
316,909	52,26
317,117	-5,9
317,324	7,2
317,532	-5,09
317,739	12,94
317,946	27,89
318,154	7
318,361	45,5
318,569	23,38
318,776	15,8
318,983	28,71
319,191	-7,75
319,398	40,17
319,605	1,06
319,813	14,17
320,02	20,51
320,227	29,12
320,434	38,95
320,642	7,82
320,849	22,56
321,056	13,14
321,264	-0,38
321,471	20,92
321,678	0,65
321,885	34,85
322,092	18,06
322,3	20,51
322,507	18,06
322,714	5,56
322,921	33,21
323,128	30,55
323,336	0,03
323,543	24,2
323,75	-8,98
323,957	19,08
324,164	1,47
324,371	2,08
324,578	46,11
324,786	9,25
324,993	27,27
325,2	52,05
325,407	31,37
325,614	18,26
325,821	1,67
326,028	-0,79
326,235	9,86
326,442	15,8
326,649	22,77
326,856	10,68
327,063	12,94
327,27	50,21
327,477	9,66
327,684	19,08
327,891	29,93
328,098	1,67
328,305	14,57
328,512	29,32
328,719	38,74
328,926	1,26
329,133	-1,19
329,34	17,24
329,546	4,13
329,753	22,77
329,96	17,24
330,167	10,27
330,374	33,01
330,581	-6,52
330,788	27,89
330,995	8,84
331,201	41,2
331,408	7,41
331,615	62,5
331,822	60,24
332,029	25,02
332,235	25,63
332,442	25,22
332,649	67,21
332,856	31,16
333,062	27,68
333,269	50,62
333,476	64,95
333,683	102,43
333,889	87,07
334,096	136,22
334,303	64,75
334,509	54,51
334,716	64,55
334,923	0,24
335,129	40,58
335,336	26,04
335,543	1,06
335,749	51,64
335,956	36,08
336,163	58,2
336,369	39,36
336,576	13,35
336,782	37,1
336,989	52,46
337,196	37,72
337,402	77,24
337,609	62,5
337,815	39,36
338,022	-6,52
338,228	46,11
338,435	12,73
338,641	35,87
338,848	-3,24
339,054	14,17
339,261	50
339,467	78,68
339,674	50,41
339,88	34,44
340,087	72,74
340,293	73,35
340,5	25,43
340,706	30,14
340,912	43,04
341,119	46,52
341,325	76,63
341,532	54,71
341,738	60,65
341,944	22,15
342,151	83,8
342,357	60,86
342,563	52,05
342,77	48,98
342,976	55,94
343,182	34,44
343,389	14,78
343,595	70,07
343,801	53,28
344,007	76,83
344,214	36,49
344,42	80,72
344,626	46,73
344,832	95,26
345,039	51,85
345,245	37,1
345,451	44,27
345,657	40,79
345,864	71,1
346,07	54,71
346,276	44,07
346,482	50,41
346,688	36,9
346,894	71,3
347,1	59,83
347,307	51,85
347,513	44,88
347,719	42,43
347,925	33,62
348,131	90,35
348,337	31,16
348,543	77,45
348,749	80,11
348,955	10,27
349,161	64,34
349,367	75,4
349,573	40,79
349,779	38,95
349,985	91,17
350,191	60,45
350,397	58,2
350,603	40,58
350,809	80,31
351,015	32,39
351,221	67,82
351,427	69,87
351,633	77,45
351,839	80,31
352,045	82,16
352,251	78,06
352,457	76,63
352,663	65,77
352,869	58,81
353,075	64,55
353,28	89,53
353,486	61,88
353,692	102,43
353,898	82,16
354,104	72,53
354,31	53,49
354,515	71,92
354,721	66,59
354,927	56,56
355,133	48,78
355,339	79,09
355,544	70,69
355,75	85,23
355,956	95,26
356,162	79,29
356,367	61,06
356,573	73,56
356,779	119,23
356,984	78,88
357,19	30,75
357,396	56,76
357,602	57,79
357,807	80,93
358,013	94,65
358,218	46,93
358,424	89,33
358,63	88,92
358,835	46,11
359,041	71,1
359,247	104,28
359,452	71,3
359,658	68,03
359,863	39,97
360,069	68,64
360,274	87,89
360,48	33,01
360,685	27,68
360,891	81,75
361,097	80,11
361,302	68,64
361,508	70,69
361,713	84,82
361,918	59,83
362,124	92,19
362,329	93,83
362,535	71,51
362,74	90,35
362,946	115,95
363,151	132,74
363,357	179,85
363,562	380,34
363,767	757,99
363,973	1522,08
364,178	2789,16
364,383	3828,51
364,589	4734,12
364,794	5081,86
365	4724,7
365,205	3709,52
365,41	2857,97
365,615	2205,29
365,821	1742,24
366,026	1382,21
366,231	1078,7
366,437	727,47
366,642	497,9
366,847	247,22
367,052	184,56
367,258	140,12
367,463	106,12
367,668	128,44
367,873	68,03
368,078	47,34
368,284	111,44
368,489	89,74
368,694	101
368,899	73,76
369,104	61,68
369,309	68,03
369,515	100,59
369,72	40,99
369,925	40,17
370,13	108,99
370,335	54,71
370,54	85,84
370,745	84
370,95	77,65
371,155	57,38
371,36	63,73
371,565	59,22
371,77	42,84
371,975	81,13
372,18	61,06
372,385	62,5
372,59	73,76
372,795	82,36
373	77,65
373,205	65,36
373,41	35,87
373,615	86,25
373,82	126,8
374,025	85,84
374,23	85,23
374,435	52,26
374,64	58,61
374,845	50,62
375,05	59,63
375,254	72,12
375,459	98,13
375,664	64,95
375,869	54,31
376,074	67,21
376,279	89,53
376,483	81,95
376,688	104,48
376,893	59,02
377,098	105,09
377,303	67,21
377,507	59,83
377,712	72,33
377,917	90,35
378,122	58,81
378,326	97,93
378,531	104,48
378,736	92,6
378,94	134,38
379,145	118,82
379,35	97,72
379,554	121,27
379,759	133,56
379,964	119,84
380,168	134,59
380,373	102,23
380,578	89,94
380,782	67,82
380,987	80,52
381,191	98,54
381,396	75,4
381,601	75,19
381,805	80,93
382,01	67,82
382,214	104,89
382,419	66,8
382,623	68,44
382,828	93,63
383,032	81,54
383,237	87,69
383,441	66,8
383,646	56,35
383,85	84,82
384,055	60,86
384,259	59,22
384,464	56,15
384,668	55,53
384,872	64,34
385,077	48,37
385,281	83,8
385,486	87,07
385,69	22,97
385,894	52,46
386,099	32,39
386,303	42,63
386,507	52,87
386,712	4,13
386,916	57,79
387,12	56,76
387,325	38,74
387,529	44,48
387,733	68,85
387,937	52,87
388,142	44,27
388,346	56,15
388,55	28,71
388,754	49,59
388,959	29,12
389,163	49,59
389,367	48,57
389,571	41,61
389,775	69,26
389,98	56,76
390,184	57,99
390,388	88,1
390,592	48,98
390,796	36,69
391	10,48
391,204	33,62
391,409	39,97
391,613	21,13
391,817	7,82
392,021	11,3
392,225	38,54
392,429	61,27
392,633	21,74
392,837	34,64
393,041	35,46
393,245	27,48
393,449	50,41
393,653	2,29
393,857	5,56
394,061	20,92
394,265	33,42
394,469	44,88
394,673	50
394,877	5,97
395,081	27,07
395,285	-10
395,489	32,39
395,693	25,22
395,896	28,5
396,1	31,37
396,304	17,65
396,508	43,66
396,712	7
396,916	43,86
397,12	24
397,323	18,88
397,527	45,5
397,731	-9,39
397,935	36,9
398,139	22,15
398,342	-1,4
398,546	-0,38
398,75	10,48
398,954	-13,28
399,157	16,21
399,361	-14,71
399,565	34,24
399,769	-31,09
399,972	15,6
400,176	28,71
400,38	3,31
400,583	2,7
400,787	16,83
400,991	18,26
401,194	-2,63
401,398	5,15
401,601	-1,81
401,805	25,63
402,009	34,44
402,212	-9,8
402,416	19,49
402,619	78,27
402,823	248,45
403,026	690,4
403,23	1625,71
403,433	3713,41
403,637	6250,23
403,841	8098,11
404,044	9460,83
404,247	9488,89
404,451	7760,81
404,654	4916,39
404,858	2884,6
405,061	1644,96
405,265	912,2
405,468	520,42
405,672	219,78
405,875	128,03
406,078	94,04
406,282	179,03
406,485	336,11
406,689	553,8
406,892	771,71
407,095	871,65
407,299	913,63
407,502	799,97
407,705	572,03
407,909	379,73
408,112	216,5
408,315	111,44
408,518	50,82
408,722	29,73
408,925	6,79
409,128	29,73
409,331	39,76
409,535	1,06
409,738	6,18
409,941	-24,34
410,144	43,25
410,347	26,66
410,551	30,96
410,754	31,16
410,957	30,96
411,16	37,31
411,363	38,33
411,566	20,51
411,769	33,83
411,973	11,71
412,176	-25,77
412,379	16,62
412,582	-2,63
412,785	5,15
412,988	30,75
413,191	35,05
413,394	34,64
413,597	34,24
413,8	61,06
414,003	4,33
414,206	17,85
414,409	15,8
414,612	28,91
414,815	15,19
415,018	17,24
415,221	26,86
415,424	-1,6
415,627	30,75
415,83	18,47
416,033	18,26
416,235	39,36
416,438	17,24
416,641	34,85
416,844	59,63
417,047	18,67
417,25	37,31
417,453	-7,13
417,655	9,25
417,858	-6,52
418,061	30,14
418,264	21,95
418,467	2,7
418,669	-13,69
418,872	-20,24
419,075	14,78
419,278	3,72
419,48	-23,93
419,683	0,03
419,886	13,96
420,089	10,48
420,291	-22,7
420,494	4,74
420,697	2,08
420,899	-5,7
421,102	-1,81
421,305	0,65
421,507	-8,98
421,71	-11,23
421,912	-20,04
422,115	5,97
422,318	-6,93
422,52	-15,12
422,723	10,48
422,925	-4,47
423,128	-36,83
423,33	24,61
423,533	-13,69
423,735	-22,08
423,938	-8,36
424,14	-13,89
424,343	-46,66
424,545	5,97
424,748	-27
424,95	-13,07
425,153	10,89
425,355	7,41
425,558	0,44
425,76	30,96
425,962	9,86
426,165	26,86
426,367	5,97
426,57	5,15
426,772	4,95
426,974	13,76
427,177	42,02
427,379	11,71
427,581	-21,88
427,784	28,71
427,986	-11,02
428,188	7,2
428,39	14,37
428,593	6,38
428,795	-11,84
428,997	-1,4
429,2	11,3
429,402	-12,05
429,604	-0,17
429,806	-7,13
430,008	-34,58
430,211	-28,64
430,413	40,58
430,615	-38,67
430,817	25,02
431,019	42,84
431,221	-2,83
431,423	-0,79
431,626	41,81
431,828	4,33
432,03	29,32
432,232	35,67
432,434	59,43
432,636	71,71
432,838	136,02
433,04	169,81
433,242	185,58
433,444	286,54
433,646	472,3
433,848	988,38
434,05	2226,59
434,252	5165,42
434,454	10815,97
434,656	18836,43
434,858	24597,57
435,06	26842,56
435,262	26761,87
435,464	23900,24
435,666	15395,64
435,868	8857,5
436,07	5492,69
436,271	3362,18
436,473	1852,83
436,675	1031,19
436,877	612,79
437,079	338,97
437,281	242,1
437,482	170,63
437,684	121,89
437,886	99,16
438,088	36,69
438,29	64,14
438,491	-0,58
438,693	7,82
438,895	-24,13
439,097	-22,7
439,298	22,77
439,5	0,44
439,702	43,04
439,903	10,89
440,105	-23,11
440,307	-56,9
440,508	-15,94
440,71	-5,09
440,912	0,24
441,113	27,27
441,315	-18,4
441,517	-27
441,718	-17,37
441,92	-3,24
442,121	-37,24
442,323	-20,45
442,524	-7,13
442,726	-24,34
442,928	-7,54
443,129	-7,34
443,331	20,92
443,532	-45,43
443,734	-2,42
443,935	-11,02
444,136	2,7
444,338	8,23
444,539	-2,42
444,741	-8,57
444,942	-8,36
445,144	-3,45
445,345	-30,07
445,546	3,31
445,748	-6,93
445,949	6,18
446,151	5,77
446,352	2,29
446,553	-69,6
446,755	-9,8
446,956	-2,63
447,157	-17,37
447,359	0,85
447,56	-3,86
447,761	20,92
447,962	-49,53
448,164	-41,95
448,365	-26,79
448,566	-28,64
448,767	-19,83
448,969	-34,99
449,17	-10,62
449,371	-37,24
449,572	-12,87
449,773	-31,91
449,974	-55,67
450,176	-13,69
450,377	-30,69
450,578	-15,33
450,779	-30,28
450,98	7,61
451,181	-27
451,382	-25,36
451,583	-33,14
451,784	-43,38
451,986	-16,76
452,187	-8,36
452,388	-10,41
452,589	-1,81
452,79	-18,4
452,991	-30,69
453,192	-34,17
453,393	-26,38
453,594	-28,23
453,795	-12,05
453,995	-35,6
454,196	-27,61
454,397	8,23
454,598	-31,71
454,799	-24,34
455	-44,61
455,201	3,52
455,402	-23,31
455,603	10,27
455,804	-19,42
456,004	-15,94
456,205	-47,89
456,406	-3,45
456,607	-15,33
456,808	-45,23
457,008	-2,63
457,209	-14,3
457,41	-30,28
457,611	-44,41
457,811	-63,25
458,012	-12,66
458,213	-15,94
458,414	-4,68
458,614	-48,5
458,815	-37,65
459,016	-65,5
459,216	-38,67
459,417	-38,47
459,618	-24,95
459,818	-12,46
460,019	-20,24
460,22	-28,64
460,42	-41,95
460,621	-43,59
460,821	-30,89
461,022	-37,85
461,223	-13,69
461,423	-19,63
461,624	-56,9
461,824	-34,58
462,025	-29,87
462,225	1,67
462,426	-23,72
462,626	5,15
462,827	-47,27
463,027	-24,54
463,228	-47,48
463,428	-22,08
463,628	-22,08
463,829	-8,98
464,029	27,68
464,23	19,69
464,43	-5,9
464,63	6,18
464,831	22,56
465,031	-18,4
465,231	-7,75
465,432	-32,12
465,632	-74,31
465,832	26,45
466,033	18,67
466,233	39,97
466,433	8,64
466,634	17,03
466,834	-22,49
467,034	8,23
467,234	-2,83
467,435	4,13
467,635	8,84
467,835	6,59
468,035	-28,84
468,235	-35,6
468,436	-31,09
468,636	-14,92
468,836	-9,59
469,036	-55,67
469,236	-75,95
469,436	-1,6
469,636	-10
469,836	-8,98
470,037	-25,16
470,237	-35,4
470,437	4,33
470,637	-17,58
470,837	-0,38
471,037	-8,16
471,237	-7,54
471,437	-0,17
471,637	-33,14
471,837	16,21
472,037	21,95
472,237	-11,23
472,437	0,85
472,637	8,23
472,837	21,33
473,036	5,77
473,236	-17,99
473,436	29,93
473,636	-8,98
473,836	34,44
474,036	13,96
474,236	-1,81
474,436	29,73
474,635	14,37
474,835	-13,89
475,035	14,37
475,235	-2,01
475,435	14,57
475,634	2,7
475,834	-12,46
476,034	-26,79
476,234	18,06
476,433	13,55
476,633	-20,04
476,833	10,68
477,033	38,74
477,232	56,35
477,432	60,45
477,632	40,17
477,831	86,87
478,031	105,3
478,231	101,61
478,43	149,95
478,63	190,9
478,829	219,78
479,029	234,94
479,229	301,29
479,428	299,24
479,628	341,84
479,827	372,56
480,027	444,44
480,226	418,64
480,426	549,5
480,625	605
480,825	754,71
481,024	814,31
481,224	888,44
481,423	1043,47
481,623	1174,75
481,822	1378,52
482,021	1559,77
482,221	1729,95
482,42	1907,31
482,62	2165,97
482,819	2370,35
483,018	2612,22
483,218	2809,64
483,417	3034,71
483,616	3297,67
483,816	3485,06
484,015	3805,77
484,214	4166,63
484,414	4478,94
484,613	4692,54
484,812	5059,13
485,011	5505,59
485,211	5748,89
485,41	5940,78
485,609	6183,88
485,808	6159,91
486,008	6285,66
486,207	6187,77
486,406	6260,67
486,605	6105,23
486,804	6082,3
487,003	6037,45
487,203	5845,55
487,402	5654,89
487,601	5556,17
487,8	5315,54
487,999	5216,82
488,198	5005,47
488,397	4803,95
488,596	4644,42
488,795	4509,87
488,994	4324,32
489,193	4304,45
489,392	4164,58
489,591	4136,32
489,79	4073,85
489,989	4167,86
490,188	4044,98
490,387	4059,72
490,586	4008,11
490,785	4034,94
490,984	3913,91
491,183	3745,97
491,382	3622,89
491,581	3525,2
491,779	3438,98
491,978	3358,5
492,177	3197,73
492,376	3143,26
492,575	3131,38
492,774	2989,25
492,972	2902,21
493,171	2850,6
493,37	2796,33
493,569	2677,75
493,768	2576,38
493,966	2557,33
494,165	2426,67
494,364	2426,26
494,563	2302,77
494,761	2345,78
494,96	2217,37
495,159	2183,37
495,357	2103,91
495,556	2020,36
495,755	1925,33
495,953	1956,25
496,152	1858,98
496,35	1778,29
496,549	1732,82
496,748	1700,26
496,946	1622,43
497,145	1535,19
497,343	1500,79
497,542	1426,03
497,74	1395,93
497,939	1292,3
498,137	1226,97
498,336	1247,45
498,534	1111,88
498,733	1101,64
498,931	1067,23
499,13	1031,19
499,328	933,29
499,527	873,7
499,725	860,59
499,924	824,75
500,122	735,66
500,32	696,34
500,519	716,41
500,717	645,96
500,915	595,99
501,114	590,67
501,312	554,01
501,51	512,23
501,709	493,19
501,907	455,09
502,105	414,54
502,304	394,68
502,502	357,2
502,7	323,61
502,898	294,12
503,097	293,3
503,295	316,65
503,493	263,61
503,691	253,57
503,889	203,19
504,088	215,89
504,286	169,61
504,484	200,94
504,682	174,52
504,88	129,47
505,078	132,95
505,276	154,86
505,474	103,05
505,672	135
505,871	83,18
506,069	102,23
506,267	63,11
506,465	58,4
506,663	119,43
506,861	49,39
507,059	52,46
507,257	54,51
507,455	68,44
507,653	109,19
507,851	69,87
508,049	115,33
508,246	63,93
508,444	45,5
508,642	93,42
508,84	20,92
509,038	32,6
509,236	-4,88
509,434	53,9
509,632	4,74
509,829	-21,47
510,027	-3,65
510,225	16,42
510,423	11,91
510,621	27,27
510,818	5,56
511,016	5,15
511,214	-13,07
511,412	-12,05
511,609	13,35
511,807	-23,11
512,005	-2,83
512,203	-15,12
512,4	3,52
512,598	10,07
512,796	9,25
512,993	-0,99
513,191	-6,72
513,389	-9,59
513,586	-52,39
513,784	-33,96
513,981	-65,09
514,179	-89,46
514,377	-32,32
514,574	-79,63
514,772	-27,82
514,969	-71,03
515,167	-23,93
515,364	-64,48
515,562	1,26
515,759	-38,47
515,957	-33,76
516,154	-17,78
516,352	-68,98
516,549	-56,9
516,746	-60,18
516,944	-73,28
517,141	-46,66
517,339	-36,62
517,536	-60,59
517,733	-72,26
517,931	-28,64
518,128	-65,71
518,325	-24,34
518,523	-39,9
518,72	-43,38
518,917	-77,58
519,115	-77,58
519,312	-93,76
519,509	-57,72
519,707	-32,94
519,904	-35,6
520,101	-72,87
520,298	-98,27
520,495	-98,68
520,693	-71,03
520,89	-98,68
521,087	-25,77
521,284	-75,95
521,481	-55,26
521,678	-92,12
521,876	-77,79
522,073	-71,03
522,27	-82,5
522,467	-24,75
522,664	-73,9
522,861	-80,66
523,058	-89,67
523,255	-47,48
523,452	-68,57
523,649	-77,38
523,846	-79,84
524,043	-43,79
524,24	-48,09
524,437	-45,64
524,634	-44,82
524,831	-64,07
525,028	-3,86
525,225	-14,1
525,422	-3,86
525,619	-20,04
525,816	-10,82
526,013	-33,14
526,209	-25,77
526,406	22,15
526,603	-6,31
526,8	45,7
526,997	35,26
527,194	-2,83
527,39	23,18
527,587	19,69
527,784	19,29
527,981	21,54
528,177	26,45
528,374	41,2
528,571	33,21
528,768	62,09
528,964	69,26
529,161	49,59
529,358	31,37
529,554	41,4
529,751	82,77
529,948	136,22
530,144	110,01
530,341	157,93
530,537	133,97
530,734	175,34
530,931	281,22
531,127	336,31
531,324	456,73
531,52	597,43
531,717	784,82
531,913	922,44
532,11	1139,93
532,306	1166,97
532,503	1188,06
532,699	1148,94
532,896	1039,99
533,092	965,45
533,289	903,19
533,485	626,92
533,682	810,82
533,878	871,24
534,074	936,78
534,271	914,04
534,467	967,9
534,664	1102,46
534,86	1238,65
535,056	1399,21
535,253	1536,22
535,449	1800,2
535,645	2095,31
535,841	2467,43
536,038	2783,63
536,234	3241,97
536,43	3636,61
536,626	3970,02
536,823	4334,56
537,019	4589,12
537,215	4889,35
537,411	5156,41
537,607	5464,83
537,804	5980,51
538	6517,9
538,196	7252,1
538,392	8295,13
538,588	9468,82
538,784	10949,09
538,98	12493,46
539,176	14269,67
539,373	16697,33
539,569	19286,17
539,765	22655,07
539,961	26642,06
540,157	30051,72
540,353	32642,2
540,549	34709,42
540,745	35048,36
540,941	34485,37
541,137	33083,54
541,333	31547,35
541,528	30031,86
541,724	28316,07
541,92	27160,61
542,116	26250,69
542,312	25488,64
542,508	25467,34
542,704	25292,65
542,9	25220,15
543,096	25181,45
543,291	25181,04
543,487	25245,34
543,683	25739,31
543,879	27308,88
544,075	31114,41
544,27	38517,21
544,466	46004,38
544,662	51438,25
544,858	55201,6
545,053	54387,74
545,249	50985,04
545,445	43896,4
545,64	37312,18
545,836	32478,57
546,032	28899,95
546,227	25923,63
546,423	23209,25
546,619	21474,01
546,814	20463,75
547,01	19229,64
547,205	18114,32
547,401	16888,4
547,597	16017,61
547,792	14892,66
547,988	14301
548,183	13299,54
548,379	12712,8
548,574	11903,85
548,77	11300,11
548,965	10572,06
549,161	10011,94
549,356	9325,46
549,552	8879,21
549,747	8299,22
549,942	7736,85
550,138	7278,92
550,333	6830,62
550,529	6425,95
550,724	6129,6
550,919	5662,87
551,115	5377,39
551,31	5023,7
551,505	4810,51
551,701	4473,62
551,896	4228,68
552,091	3988,86
552,287	3769,73
552,482	3480,97
552,677	3367,3
552,872	3121,34
553,067	2872,31
553,263	2692,5
553,458	2514,53
553,653	2279,63
553,848	2149,38
554,043	1973,05
554,239	1858,16
554,434	1726,27
554,629	1643,73
554,824	1488,09
555,019	1390,6
555,214	1364,6
555,409	1283,09
555,604	1179,46
555,799	1135,84
555,994	1098,15
556,189	1007,23
556,384	975,28
556,579	928,99
556,774	875,13
556,969	908,92
557,164	804,07
557,359	742,22
557,554	746,52
557,749	710,47
557,944	677,71
558,139	656
558,334	642,89
558,529	624,05
558,724	571,01
558,918	558,31
559,113	545,2
559,308	532,51
559,503	531,69
559,698	526,57
559,893	483,15
560,087	483,76
560,282	499,53
560,477	459,6
560,672	495,03
560,866	475,57
561,061	469,02
561,256	463,49
561,45	466,97
561,645	452,84
561,84	435,64
562,034	426,63
562,229	364,78
562,424	381,57
562,618	384,23
562,813	361,71
563,008	367,64
563,202	380,55
563,397	340,2
563,591	319,93
563,786	321,57
563,98	323,2
564,175	307,23
564,369	305,18
564,564	287,98
564,758	261,35
564,953	306
565,147	261,35
565,342	283,06
565,536	284,5
565,731	257,87
565,925	270,16
566,119	254,19
566,314	258,28
566,508	266,88
566,703	293,51
566,897	273,85
567,091	279,58
567,286	287,36
567,48	282,65
567,674	239,24
567,868	274,87
568,063	268,11
568,257	256,03
568,451	214,87
568,646	213,23
568,84	180,05
569,034	207,49
569,228	176,36
569,422	138,48
569,616	145,85
569,811	122,5
570,005	125,98
570,199	136,22
570,393	142,37
570,587	85,64
570,781	147,28
570,975	128,85
571,169	122,91
571,364	87,69
571,558	127,01
571,752	127,83
571,946	94,86
572,14	141,75
572,334	151,58
572,528	128,03
572,722	143,8
572,916	174,73
573,109	173,91
573,303	181,07
573,497	214,66
573,691	254,6
573,885	249,68
574,079	285,52
574,273	348,19
574,467	424,99
574,661	714,78
574,854	1370,94
575,048	2532,55
575,242	3957,53
575,436	5205,97
575,63	5970,48
575,823	6138,21
576,017	5860,5
576,211	4808,87
576,405	3755,8
576,598	3044,13
576,792	2845,69
576,986	2991,3
577,18	3702,76
577,373	4747,43
577,567	5618,43
577,761	6225,24
577,954	6352,42
578,148	6049,53
578,341	5515,42
578,535	5119,96
578,729	5225,43
578,922	5128,97
579,116	5127,12
579,309	4826,07
579,503	4475,26
579,696	4041,7
579,89	3844,48
580,083	3699,89
580,277	3780,58
580,47	3889,74
580,664	4078,15
580,857	4341,52
581,051	4546,12
581,244	4765,04
581,437	5084,32
581,631	5136,34
581,824	5310,83
582,018	5406,88
582,211	5505,38
582,404	5488,18
582,598	5443,74
582,791	5388,85
582,984	5336,63
583,178	5253,07
583,371	5216,42
583,564	5070,6
583,757	5033,33
583,951	4863,55
584,144	4731,87
584,337	4626,6
584,53	4571,92
584,723	4604,28
584,917	4887,31
585,11	5341,14
585,303	6261,9
585,496	7090,31
585,689	8337,31
585,882	9215,07
586,075	9667,88
586,268	9574,49
586,462	8988,77
586,655	8032,58
586,848	7073,1
587,041	6172,82
587,234	5434,73
587,427	4711,8
587,62	4288,48
587,813	3853,29
588,006	3572,1
588,199	3358,29
588,392	3229,07
588,585	3107,21
588,777	3076,29
588,97	3052,33
589,163	3147,97
589,356	3278,83
589,549	3406,63
589,742	3483,01
589,935	3664,87
590,128	3819,5
590,32	4055,83
590,513	4280,08
590,706	4736,17
590,899	5202,28
591,092	5803,57
591,284	6403,62
591,477	7103
591,67	7621,55
591,863	7861,98
592,055	7885,94
592,248	7489,87
592,441	7002,86
592,633	6375,77
592,826	5648,95
593,019	5006,29
593,211	4377,16
593,404	3933,16
593,596	3535,03
593,789	3236,64
593,982	2968,16
594,174	2840,36
594,367	2724,24
594,559	2646,42
594,752	2591,53
594,944	2555,69
595,137	2510,64
595,329	2460,26
595,522	2412,13
595,714	2448,59
595,907	2441,62
596,099	2519,65
596,292	2596,24
596,484	2656,25
596,676	2837,09
596,869	3044,34
597,061	3313,44
597,253	3647,26
597,446	4002,79
597,638	4317,36
597,83	4578,88
598,023	4815,42
598,215	5006,5
598,407	4987,66
598,6	4844,3
598,792	4618
598,984	4324,12
599,176	4007,91
599,369	3686,17
599,561	3453,93
599,753	3165,37
599,945	2862,28
600,137	2661,37
600,329	2441,21
600,522	2240,31
600,714	2040,83
600,906	1945,81
601,098	1764,97
601,29	1683,26
601,482	1625,71
601,674	1573,9
601,866	1571,24
602,058	1575,13
602,25	1556,08
602,442	1591,31
602,634	1687,36
602,826	1700,67
603,018	1714,39
603,21	1732,62
603,402	1739,37
603,594	1816,79
603,786	1822,11
603,978	1861,64
604,17	1934,34
604,362	1998,44
604,554	2063,16
604,745	2127,46
604,937	2241,33
605,129	2292,94
605,321	2447,97
605,513	2581,91
605,704	2691,88
605,896	2896,89
606,088	3086,94
606,28	3339,04
606,471	3644,6
606,663	3904,9
606,855	4352,38
607,047	4804,16
607,238	5332,33
607,43	5903,1
607,622	6729,25
607,813	7678,48
608,005	9020,31
608,197	10441,19
608,388	12513,53
608,58	15096,43
608,771	19298,04
608,963	24947,78
609,154	33014,72
609,346	42816,51
609,537	53550,73
609,729	61195,59
609,921	63455,12
610,112	63827,85
610,303	64485,86
610,495	64478,49
610,686	64438,14
610,878	57056,03
611,069	47439,59
611,261	40309,59
611,452	35918,95
611,643	32141,06
611,835	29247,28
612,026	26833,95
612,217	25145,4
612,409	23845,97
612,6	22704,63
612,791	21609,59
612,983	20902,01
613,174	20027,73
613,365	19176,6
613,557	17952,12
613,748	16908,47
613,939	15440,49
614,13	14276,42
614,321	12807,62
614,513	11608,13
614,704	10360,5
614,895	9433,39
615,086	8545,18
615,277	7718,01
615,468	6984,22
615,659	6434,75
615,851	5891,43
616,042	5477,12
616,233	5106,44
616,424	4840,82
616,615	4509,46
616,806	4291,76
616,997	4034,74
617,188	3889,54
617,379	3774,24
617,57	3643,78
617,761	3531,14
617,952	3440,42
618,143	3437,34
618,334	3401,92
618,524	3471,34
618,715	3469,7
618,906	3560,43
619,097	3535,65
619,288	3649,51
619,479	3622,07
619,67	3716,89
619,86	3779,15
620,051	3749,86
620,242	3773,42
620,433	3769,12
620,624	3840,79
620,814	3894,86
621,005	3933,98
621,196	3982,92
621,386	4101,5
621,577	4254,69
621,768	4359,34
621,958	4502,7
622,149	4499,22
622,34	4544,07
622,53	4605,3
622,721	4610,01
622,912	4661,21
623,102	4704,22
623,293	4758,69
623,483	4826,89
623,674	4783,27
623,864	4878,09
624,055	4873,38
624,245	4897,34
624,436	4939,33
624,626	4978,65
624,817	5021,04
625,007	5023,91
625,198	5029,03
625,388	4960,83
625,579	4904,3
625,769	4896,52
625,959	4877,27
626,15	4778,97
626,34	4782,45
626,531	4678,82
626,721	4631,93
626,911	4672,47
627,101	4627,01
627,292	4563,11
627,482	4584,62
627,672	4638,07
627,863	4784,09
628,053	4856,38
628,243	5244,06
628,433	5488,59
628,623	6012,26
628,814	6711,02
629,004	7580,18
629,194	8505,04
629,384	9081,14
629,574	9557,29
629,764	9777,04
629,955	9424,99
630,145	8718,03
630,335	7806,69
630,525	6801,54
630,715	5749,5
630,905	4944,24
631,095	4204,1
631,285	3665,9
631,475	3013,42
631,665	2597,68
631,855	2244,2
632,045	2021,58
632,235	1825,59
632,425	1632,06
632,615	1466,17
632,805	1392,24
632,994	1292,51
633,184	1187,65
633,374	1165,53
633,564	1157,55
633,754	1075,63
633,944	1017,47
634,133	998,21
634,323	988,38
634,513	933,09
634,703	901,75
634,893	893,77
635,082	846,46
635,272	872,26
635,462	808,37
635,651	799,97
635,841	779,9
636,031	758,19
636,221	742,63
636,41	746,52
636,6	704,13
636,789	679,55
636,979	687,33
637,169	668,9
637,358	634,29
637,548	653,54
637,737	610,33
637,927	629,58
638,116	633,27
638,306	577,36
638,495	593,74
638,685	566,5
638,874	553,4
639,064	546,02
639,253	566,3
639,443	556,06
639,632	570,39
639,822	568,76
640,011	583,3
640,2	577,97
640,39	564,66
640,579	564,45
640,768	584,11
640,958	568,96
641,147	596,2
641,336	586,57
641,526	595,17
641,715	624,66
641,904	578,38
642,093	617,09
642,283	550,53
642,472	619,14
642,661	624,66
642,85	572,65
643,039	609,92
643,228	598,45
643,418	651,7
643,607	611,35
643,796	595,17
643,985	582,89
644,174	651,9
644,363	624,26
644,552	582,27
644,741	565,48
644,93	578,38
645,119	583,71
645,308	558,11
645,497	586,37
645,686	537,22
645,875	588,21
646,064	589,85
646,253	551,14
646,442	576,95
646,631	595,79
646,82	546,23
647,009	628,56
647,198	609,71
647,387	654,77
647,575	707,4
647,764	657,23
647,953	902,78
648,142	1131,74
648,331	1360,09
648,519	1683,46
648,708	2043,7
648,897	2230,89
649,086	2430,15
649,274	2483,61
649,463	2431,79
649,652	2221,47
649,84	2038,99
650,029	1822,52
650,218	1657,46
650,406	1452,66
650,595	1339,2
650,784	1202,19
650,972	1162,05
651,161	1158,98
651,349	1242,54
651,538	1268,14
651,726	1212,84
651,915	1228,41
652,104	1152,84
652,292	1080,95
652,481	1009,27
652,669	952,13
652,857	887,83
653,046	841,75
653,234	786,04
653,423	739,76
653,611	743,86
653,8	661,12
653,988	651,29
654,176	621,8
654,365	654,77
654,553	559,95
654,741	552,17
654,93	595,58
655,118	575,31
655,306	584,52
655,494	657,43
655,683	624,26
655,871	672,18
656,059	688,97
656,247	732,59
656,436	804,48
656,624	734,85
656,812	718,05
657	679,14
657,188	583,71
657,376	616,47
657,564	548,68
657,753	543,36
657,941	475,78
658,129	457,35
658,317	398,57
658,505	419,66
658,693	411,68
658,881	396,52
659,069	359,86
659,257	382,39
659,445	411,27
659,633	449,56
659,821	497,69
660,009	562,82
660,197	742,83
660,384	926,74
660,572	1085,66
660,76	1326,91
660,948	1412,72
661,136	1488,29
661,324	1439,76
661,512	1348,21
661,699	1224,51
661,887	1057,61
662,075	1011,94
662,263	895,61
662,451	822,5
662,638	703,31
662,826	663,58
663,014	586,57
663,201	530,66
663,389	523,09
663,577	494,41
663,764	423,55
663,952	463,9
664,14	413,93
664,327	388,74
664,515	384,64
664,702	386,28
664,89	380,55
665,078	393,45
665,265	408,6
665,453	417,41
665,64	417,82
665,828	415,98
666,015	361,5
666,203	389,35
666,39	359,66
666,578	394,27
666,765	417,82
666,952	371,13
667,14	371,74
667,327	352,69
667,515	354,95
667,702	343,89
667,889	351,47
668,077	389,35
668,264	325,87
668,451	331,19
668,638	313,78
668,826	307,84
669,013	317,47
669,2	301,29
669,388	306,41
669,575	308,25
669,762	345,94
669,949	323,82
670,136	135
670,323	276,71
670,511	334,67
670,698	313,17
670,885	303,13
671,072	290,44
671,259	283,88
671,446	281,83
671,633	286,54
671,82	256,85
672,007	287,36
672,194	261,35
672,381	271,59
672,568	232,27
672,755	263,81
672,942	245,79
673,129	240,26
673,316	232,89
673,503	226,54
673,69	229,61
673,877	225,93
674,064	217,94
674,251	234,73
674,437	213,43
674,624	218,55
674,811	198,07
674,998	244,77
675,185	234,32
675,372	198,69
675,558	223,06
675,745	186,81
675,932	207,49
676,119	243,74
676,305	238,42
676,492	220,6
676,679	224,08
676,865	233,09
677,052	217,32
677,239	229,41
677,425	235,96
677,612	222,44
677,798	281,02
677,985	238,83
678,172	285,11
678,358	277,33
678,545	300,47
678,731	300,68
678,918	320,75
679,104	298,01
679,291	253,57
679,477	302,31
679,664	321,36
679,85	323,41
680,036	279,79
680,223	250,71
680,409	253,37
680,596	284,7
680,782	262,38
680,968	248,04
681,155	283,06
681,341	262,58
681,527	228,79
681,714	281,63
681,9	261,56
682,086	235,55
682,272	241,9
682,459	270,78
682,645	243,74
682,831	232,68
683,017	204,42
683,204	223,47
683,39	227,56
683,576	292,69
683,762	295,97
683,948	304,57
684,134	303,54
684,32	345,94
684,506	382,19
684,693	396,93
684,879	515,3
685,065	594,56
685,251	676,89
685,437	777,85
685,623	905,85
685,809	1033,44
685,995	1082,39
686,181	1114,54
686,366	1146,28
686,552	1130,72
686,738	1083,61
686,924	989
687,11	912,2
687,296	799,36
687,482	744,88
687,668	655,59
687,853	548,28
688,039	471,07
688,225	404,92
688,411	390,99
688,597	341,43
688,782	313,58
688,968	336,11
689,154	307,43
689,34	256,85
689,525	241,28
689,711	232,68
689,897	175,75
690,082	184,56
690,268	185,38
690,454	182,92
690,639	181,07
690,825	150,97
691,01	157,11
691,196	272,62
691,381	379,11
691,567	477,83
691,753	612,38
691,938	754,1
692,124	858,54
692,309	878,41
692,494	823,52
692,68	756,76
692,865	641,66
693,051	546,23
693,236	430,52
693,422	323,82
693,607	374,4
693,792	262,99
693,978	235,76
694,163	204,01
694,348	216,71
694,534	236,98
694,719	299,24
694,904	296,99
695,089	319,11
695,275	287,77
695,46	234,32
695,645	202,58
695,83	164,49
696,016	137,45
696,201	111,44
696,386	112,67
696,571	50
696,756	68,44
696,941	78,47
697,126	85,02
697,311	79,9
697,497	59,22
697,682	55,53
697,867	36,69
698,052	78,88
698,237	22,56
698,422	41,2
698,607	76,63
698,792	111,24
698,977	82,98
699,162	65,77
699,347	60,24
699,531	120,25
699,716	102,43
699,901	88,71
700,086	75,81
700,271	111,44
700,456	119,43
700,641	99,36
700,825	156,5
701,01	98,13
701,195	125,78
701,38	153,02
701,565	165,1
701,749	208,72
701,934	229
702,119	261,76
702,303	324,02
702,488	336,52
702,673	329,35
702,857	393,45
703,042	426,01
703,227	442,6
703,411	495,03
703,596	533,73
703,78	628,15
703,965	763,72
704,15	939,64
704,334	1066,21
704,519	1333,47
704,703	1612,4
704,888	1844,43
705,072	2105,14
705,257	2260,38
705,441	2438,96
705,625	2363,19
705,81	2366,46
705,994	2264,68
706,179	2091,01
706,363	1975,3
706,547	1930,65
706,732	1924,92
706,916	2160,23
707,1	2384,69
707,285	2654,41
707,469	2797,35
707,653	2840,77
707,837	2703,15
708,022	2419,09
708,206	2039,2
708,39	1760,26
708,574	1501,4
708,759	1249,91
708,943	1071,33
709,127	924,69
709,311	883,94
709,495	923,26
709,679	976,71
709,863	1177,62
710,047	1353,95
710,231	1649,88
710,415	1969,57
710,6	2141,19
710,784	2345,16
710,968	2276,97
711,152	2183,37
711,336	1964,24
711,519	1690,63
711,703	1463,51
711,887	1181,1
712,071	988,18
712,255	820,45
712,439	596,61
712,623	501,17
712,807	396,32
712,991	358,63
713,174	291,87
713,358	244,77
713,542	178,82
713,726	156,29
713,91	145,64
714,093	98,75
714,277	89,94
714,461	64,95
714,645	76,01
714,828	97,31
715,012	84,21
715,196	54,51
715,379	49,59
715,563	90,14
715,747	58,2
715,93	60,04
716,114	49,8
716,297	73,15
716,481	40,17
716,664	39,36
716,848	42,22
717,031	64,34
717,215	54,51
717,398	33,21
717,582	26,25
717,765	9,86
717,949	31,16
718,132	37,72
718,316	65,77
718,499	32,8
718,682	17,03
718,866	21,74
719,049	43,66
719,233	46,32
719,416	14,17
719,599	34,03
719,782	30,96
719,966	47,34
720,149	38,74
720,332	8,43
720,515	45,7
720,699	31,16
720,882	31,98
721,065	41,81
721,248	16,42
721,431	16,83
721,615	22,15
721,798	11,3
721,981	4,95
722,164	74,58
722,347	25,84
722,53	-10
722,713	36,9
722,896	-2,63
723,079	48,98
723,262	16,62
723,445	-25,77
723,628	47,14
723,811	48,16
723,994	55,33
724,177	4,13
724,36	4,95
724,543	37,31
724,726	39,76
724,909	20,1
725,091	24,4
725,274	35,05
725,457	45,5
725,64	63,93
725,823	69,05
726,006	74,38
726,188	69,05
726,371	5,36
726,554	53,28
726,737	37,92
726,919	29,93
727,102	53,08
727,285	17,03
727,467	56,97
727,65	29,12
727,833	18,47
728,015	15,19
728,198	69,26
728,38	31,78
728,563	27,27
728,746	26,86
728,928	37,51
729,111	26,86
729,293	3,72
729,476	21,13
729,658	39,76
729,841	36,08
730,023	-18,81
730,205	1,47
730,388	21,13
730,57	22,36
730,753	35,67
730,935	-20,04
731,117	-8,77
731,3	40,17
731,482	4,95
731,664	27,27
731,847	38,54
732,029	-13,07
732,211	8,64
732,394	40,38
732,576	11,5
732,758	10,07
732,94	9,86
733,122	-8,16
733,305	1,88
733,487	-8,57
733,669	-13,69
733,851	-12,87
734,033	33,83
734,215	16,01
734,397	1,26
734,58	-3,24
734,762	21,95
734,944	3,93
735,126	16,83
735,308	-5,7
735,49	18,67
735,672	6,38
735,854	-5,9
736,036	25,22
736,218	44,27
736,399	136,43
736,581	180,26
736,763	243,95
736,945	199,51
737,127	279,38
737,309	189,68
737,491	158,75
737,672	106,94
737,854	104,48
738,036	50,62
738,218	75,6
738,4	51,85
738,581	54,1
738,763	21,54
738,945	0,85
739,127	-6,31
739,308	20,92
739,49	6,59
739,672	17,65
739,853	24,2
740,035	24,61
740,216	-11,84
740,398	16,42
740,58	76,83
740,761	28,09
740,943	40,99
741,124	42,02
741,306	58,61
741,487	69,26
741,669	75,4
741,85	40,99
742,032	49,8
742,213	34,24
742,394	63,93
742,576	21,54
742,757	4,74
742,939	-19,63
743,12	15,6
743,301	12,73
743,483	30,75
743,664	0,85
743,845	9,05
744,027	9,86
744,208	13,76
744,389	-6,72
744,57	14,78
744,752	7,41
744,933	39,15
745,114	8,84
745,295	18,06
745,476	18,06
745,657	30,14
745,839	14,37
746,02	9,05
746,201	-4,88
746,382	-30,07
746,563	-25,36
746,744	9,05
746,925	6,38
747,106	34,64
747,287	-8,16
747,468	-18,81
747,649	15,39
747,83	-12,46
748,011	7,41
748,192	24,81
748,373	95,67
748,554	178,62
748,735	214,87
748,915	205,65
749,096	258,49
749,277	229,2
749,458	257,67
749,639	302,52
749,82	283,27
750	320,75
750,181	251,52
750,362	205,24
750,543	154,86
750,723	136,84
750,904	87,28
751,085	81,13
751,265	61,68
751,446	50,21
751,627	46,52
751,807	9,45
751,988	21,54
752,169	-8,77
752,349	7
752,53	5,56
752,71	15,6
752,891	-28,64
753,071	-3,65
753,252	-4,27
753,432	-28,23
753,613	12,53
753,793	-5,09
753,974	-40,72
754,154	-5,7
754,334	-26,79
754,515	9,45
754,695	-2,42
754,876	-11,02
755,056	-50,35
755,236	8,43
755,417	-22,08
755,597	-39,49
755,777	0,03
755,957	16,62
756,138	3,93
756,318	-18,4
756,498	-19,63
756,678	26,25
756,859	-29,66
757,039	-26,79
757,219	-27,82
757,399	16,83
757,579	-20,45
757,759	10,07
757,939	-15,94
758,119	1,88
758,3	3,72
758,48	1,26
758,66	6,38
758,84	18,26
759,02	12,53
759,2	36,49
759,38	8,02
759,56	-27,61
759,74	21,13
759,919	24,2
760,099	18,67
760,279	-16,96
760,459	1,88
760,639	-3,04
760,819	31,98
760,999	91,58
761,178	229,41
761,358	429,9
761,538	680,78
761,718	939,03
761,898	1104,71
762,077	1172,7
762,257	1097,75
762,437	895,82
762,616	677,71
762,796	487,04
762,976	381,98
763,155	268,11
763,335	217,32
763,515	110,62
763,694	50,62
763,874	48,37
764,053	24,61
764,233	-9,39
764,413	29,12
764,592	14,78
764,772	-4,27
764,951	6,59
765,131	12,73
765,31	-17,58
765,489	-0,38
765,669	-21,06
765,848	-19,22
766,028	16,83
766,207	9,66
766,386	0,03
766,566	21,74
766,745	-12,66
766,924	9,25
767,104	10,27
767,283	5,56
767,462	-15,53
767,642	-2,22
767,821	28,3
768	35,87
768,179	25,02
768,358	-5,29
768,538	-22,7
768,717	1,88
768,896	24
769,075	-48,3
769,254	8,23
769,433	-8,16
769,612	4,95
769,791	28,71
769,97	20,1
770,149	77,24
770,328	170,83
770,507	222,44
770,686	301,5
770,865	349,01
771,044	327,5
771,223	330,17
771,402	262,99
771,581	158,34
771,76	134,38
771,939	85,23
772,118	58,2
772,297	56,15
772,475	47,96
772,654	3,52
772,833	9,25
773,012	-2,83
773,191	-12,25
773,369	6,38
773,548	-28,64
773,727	16,42
773,906	-16,35
774,084	9,66
774,263	24,4
774,442	-7,75
774,62	13,96
774,799	-0,17
774,977	1,47
775,156	3,52
775,335	4,54
775,513	1,47
775,692	-11,02
775,87	-62,84
776,049	-22,9
776,227	-13,28
776,406	-29,46
776,584	7
776,763	-17,58
776,941	-4,47
777,119	-1,4
777,298	8,43
777,476	-17,58
777,655	7,2
777,833	-19,63
778,011	-5,7
778,19	9,66
778,368	-10,21
778,546	-3,86
778,725	-5,5
778,903	16,42
779,081	1,26
779,259	-47,68
779,437	12,32
779,616	5,97
779,794	-2,01
779,972	-28,23
780,15	-13,69
780,328	-2,42
780,506	-16,96
780,685	0,85
780,863	7,61
781,041	-4,68
781,219	-17,78
781,397	-29,05
781,575	-32,12
781,753	7,2
781,931	26,25
782,109	-4,88
782,287	-10,41
782,465	-5,5
782,643	-4,68
782,82	-36,01
782,998	-31,3
783,176	20,72
783,354	-1,19
783,532	-1,6
783,71	4,54
783,888	16,42
784,065	3,11
784,243	-5,7
784,421	6,59
784,599	-1,6
784,776	12,32
784,954	-3,86
785,132	-17,78
785,31	21,54
785,487	-31,09
785,665	26,25
785,842	19,08
786,02	-14,3
786,198	22,36
786,375	-7,75
786,553	-2,42
786,73	-10
786,908	11,09
787,085	-1,81
787,263	28,71
787,44	13,76
787,618	-16,76
787,795	-17,58
787,973	40,38
788,15	12,73
788,328	-26,79
788,505	-36,42
788,682	-3,65
788,86	8,23
789,037	-9,59
789,215	-0,38
789,392	-24,54
789,569	-43,38
789,746	-27,82
789,924	35,46
790,101	4,54
790,278	-25,16
790,455	0,44
790,633	5,56
790,81	-17,37
790,987	-1,19
791,164	12,53
791,341	19,69
791,518	17,24
791,695	12,12
791,873	8,84
792,05	14,57
792,227	-24,95
792,404	-7,54
792,581	67
792,758	111,65
792,935	173,91
793,112	225,93
793,289	182,51
793,466	197,46
793,643	146,67
793,82	100,79
793,996	71,71
794,173	62,5
794,35	51,44
794,527	8,84
794,704	20,72
794,881	42,84
795,057	6,38
795,234	23,38
795,411	17,24
795,588	-7,54
795,765	31,78
795,941	-1,19
796,118	20,51
796,295	-9,39
796,471	-0,99
796,648	21,74
796,825	-1,81
797,001	-51,57
797,178	-7,75
797,354	7
797,531	30,14
797,708	24,61
797,884	11,5
798,061	18,67
798,237	6,59
798,414	53,9
798,59	65,98
798,767	98,54
798,943	132,54
799,119	155,88
799,296	191,31
799,472	186,81
799,649	264,22
799,825	275,08
800,001	266,27
800,178	273,44
800,354	154,04
800,53	142,78
800,707	97,72
800,883	87,89
801,059	56,15
801,235	31,57
801,411	47,55
801,588	46,32
801,764	-42,56
801,94	-3,04
802,116	9,66
802,292	40,58
802,468	19,69
802,645	7
802,821	7,2
802,997	30,96
803,173	43,04
803,349	12,32
803,525	30,96
803,701	17,85
803,877	28,5
804,053	11,71
804,229	-4,27
804,405	-11,23
804,581	10,27
804,756	-13,48
804,932	32,6
805,108	23,79
805,284	-16,35
805,46	-3,45
805,636	25,02
805,812	-6,31
805,987	8,43
806,163	-0,38
806,339	-36,83
806,515	27,68
806,69	-3,04
806,866	1,06
807,042	-17,58
807,217	6,79
807,393	13,96
807,569	7,82
807,744	-8,98
807,92	3,72
808,096	81,13
808,271	130,69
808,447	214,46
808,622	246,2
808,798	255,42
808,973	292,28
809,149	339,18
809,324	439,12
809,5	643,71
809,675	776,42
809,851	866,53
810,026	858,95
810,201	796,69
810,377	632,45
810,552	456,73
810,728	247,84
810,903	228,59
811,078	133,15
811,253	128,85
811,429	120,25
811,604	86,66
811,779	53,49
811,955	29,32
812,13	33,83
812,305	0,24
812,48	36,28
812,655	-11,23
812,83	-11,02
813,006	50,21
813,181	6,79
813,356	11,09
813,531	29,12
813,706	-23,52
813,881	18,26
814,056	14,78
814,231	-6,31
814,406	-13,28
814,581	29,73
814,756	-13,69
814,931	22,56
815,106	-14,1
815,281	-21,06
815,456	-25,16
815,631	3,93
815,805	48,57
815,98	47,34
816,155	12,53
816,33	27,27
816,505	31,37
816,68	-30,48
816,854	13,55
817,029	6,59
817,204	27,89
817,379	24,4
817,553	5,56
817,728	17,65
817,903	-3,86
818,077	-11,64
818,252	15,6
818,427	-11,64
818,601	-29,46
818,776	35,87
818,95	29,73
819,125	31,98
819,299	-16,76
819,474	23,59
819,648	18,47
819,823	-11,64
819,997	-4,27
820,172	24,2
820,346	25,43
820,521	1,47
820,695	23,79
820,87	16,01
821,044	-1,81
821,218	-37,44
821,393	-19,22
821,567	27,89
821,741	20,31
821,916	21,74
822,09	3,11
822,264	-3,65
822,438	24,4
822,613	6,79
822,787	-6,93
822,961	-8,77
823,135	9,86
823,309	16,83
823,483	12,94
823,658	0,65
823,832	-1,19
824,006	38,54
824,18	54,71
824,354	55,94
824,528	85,84
824,702	81,75
824,876	84,62
825,05	88,71
825,224	65,77
825,398	36,9
825,572	64,95
825,746	67
825,92	-9,8
826,093	28,09
826,267	-5,5
826,441	44,07
826,615	-10,62
826,789	-12,05
826,963	-7,34
827,136	24,81
827,31	24,81
827,484	-1,19
827,658	35,67
827,831	18,67
828,005	30,55
828,179	0,24
828,353	-7,13
828,526	29,73
828,7	-4,68
828,873	-21,67
829,047	14,17
829,221	-10
829,394	-15,74
829,568	11,71
829,741	28,3
829,915	-13,07
830,088	-4,27
830,262	-17,58
830,435	-17,37
830,609	-25,57
830,782	22,56
830,956	24
831,129	-22,7
831,302	10,68
831,476	24,4
831,649	6,79
831,822	-6,93
831,996	1,26
832,169	-31,91
832,342	23,59
832,516	-22,29
832,689	36,69
832,862	22,56
833,035	13,14
833,209	7,41
833,382	3,72
833,555	15,8
833,728	1,06
833,901	51,44
834,074	-17,17
834,247	10,89
834,42	17,85
834,594	-12,25
834,767	-6,11
834,94	1,06
835,113	-16,55
835,286	5,15
835,459	3,11
835,632	9,45
835,805	29,52
835,977	9,05
836,15	-12,46
836,323	-3,04
836,496	10,89
836,669	20,1
836,842	23,38
837,015	-23,93
837,188	6,59
837,36	-0,58
837,533	15,39
837,706	-2,83
837,879	-4,27
838,051	19,08
838,224	20,31
838,397	23,38
838,569	49,59
838,742	97,93
838,915	91,17
839,087	117,59
839,26	98,75
839,433	119,02
839,605	106,12
839,778	134,79
839,95	75,4
840,123	107,96
840,295	147,49
840,468	215,89
840,64	209,34
840,813	222,03
840,985	229,41
841,158	182,92
841,33	170,43
841,502	124,55
841,675	100,79
841,847	56,35
842,019	55,94
842,192	84,21
842,364	40,17
842,536	23,59
842,709	7,41
842,881	25,02
843,053	24
843,225	38,95
843,398	-31,3
843,57	3,93
843,742	37,31
843,914	-5,7
844,086	-33,96
844,258	29,12
844,43	9,25
844,602	0,44
844,775	21,33
844,947	11,71
845,119	37,92
845,291	-10,41
845,463	-34,17
845,635	42,22
845,807	27,48
845,979	-15,33
846,15	-13,48
846,322	-17,99
846,494	-0,79
846,666	8,43
846,838	-12,05
847,01	26,04
847,182	-7,75
847,354	-6,52
847,525	24,61
847,697	-28,23
847,869	53,28
848,041	-2,42
848,212	-22,08
848,384	-9,18
848,556	24,81
848,727	-3,04
848,899	47,96
849,071	6,38
849,242	7,41
849,414	8,02
849,585	11,09
849,757	19,69
849,929	22,77
850,1	35,87
850,272	19,49
850,443	38,95
850,615	53,69
850,786	38,33
850,958	30,34
851,129	33,21
851,3	16,21
851,472	17,65
851,643	19,29
851,815	-37,03
851,986	-1,19
852,157	-1,6
852,329	-20,45
852,5	17,03
852,671	-28,64
852,842	-1,4
853,014	29,93
853,185	9,25
853,356	-0,79
853,527	-8,57
853,698	19,49
853,87	13,76
854,041	-22,08
854,212	8,84
854,383	4,13
854,554	15,6
854,725	-13,89
854,896	-28,23
855,067	-22,49
855,238	57,17
855,409	12,94
855,58	11,5
855,751	-34,37
855,922	8,64
856,093	-34,17
856,264	30,14
856,435	8,23
856,606	38,13
856,777	-1,4
856,948	-4,47
857,118	22,15
857,289	18,26
857,46	-17,58
857,631	21,95
857,802	25,63
857,972	-5,5
858,143	13,96
858,314	28,91
858,484	2,29
858,655	-7,95
858,826	22,56
858,996	-1,19
859,167	-15,33
859,338	-5,09
859,508	6,38
859,679	3,93
859,849	0,24
860,02	17,44
860,19	2,08
860,361	-9,39
860,531	23,18
860,702	-35,6
860,872	2,9
861,043	39,97
861,213	14,37
861,384	9,45
861,554	0,65
861,724	24,4
861,895	29,93
862,065	-31,91
862,235	-4,06
862,406	-4,47
862,576	26,66
862,746	0,03
862,916	11,3
863,087	-11,43
863,257	-11,43
863,427	36,69
863,597	2,08
863,767	39,97
863,937	41,81
864,108	-27,41
864,278	20,51
864,448	8,23
864,618	12,94
864,788	17,44
864,958	12,94
865,128	38,54
865,298	3,31
865,468	21,74
865,638	46,93
865,808	11,3
865,978	-2,83
866,148	-0,58
866,318	23,18
866,487	-1,6
866,657	-24,95
866,827	-37,65
866,997	8,43
867,167	-8,16
867,337	1,06
867,506	3,93
867,676	39,56
867,846	22,36
868,016	-2,42
868,185	28,09
868,355	-14,71
868,525	16,21
868,694	15,6
868,864	-0,17
869,034	18,26
869,203	3,52
869,373	0,03
869,542	-11,02
869,712	25,63
869,881	24,81
870,051	5,15
870,22	-2,22
870,39	41,2
870,559	14,17
870,729	17,44
870,898	17,03
871,068	10,89
871,237	53,08
871,406	22,77
871,576	5,36
871,745	10,89
871,914	13,76
872,084	42,43
872,253	44,48
872,422	26,45
872,591	-22,9
872,761	-10,62
872,93	-124,28
873,099	-3,86
873,268	15,39
873,437	18,47
873,607	-10
873,776	-4,06
873,945	39,97
874,114	23,18
874,283	-6,11
874,452	-1,4
874,621	20,1
874,79	17,85
874,959	-11,23
875,128	40,38
875,297	1,26
875,466	-3,86
875,635	-27,41
875,804	-4,88
875,973	22,36
876,142	1,26
876,31	5,77
876,479	9,25
876,648	8,43
876,817	17,03
876,986	16,62
877,155	6,38
877,323	15,8
877,492	-3,24
877,661	10,07
877,829	-20,86
877,998	-1,81
878,167	-9,59
878,335	30,14
878,504	36,9
878,673	27,89
878,841	10,89
879,01	-1,81
879,178	-19,83
879,347	-3,45
879,515	11,5
879,684	-14,71
879,852	13,35
880,021	7,61
880,189	2,29
880,358	11,5
880,526	-59,36
880,695	13,55
880,863	-24,54
881,031	13,76
881,2	-3,04
881,368	11,09
881,536	-7,75
881,705	18,67
881,873	15,39
882,041	0,44
882,21	16,21
882,378	-15,12
882,546	4,33
882,714	23,59
882,882	26,25
883,05	-0,17
883,219	8,64
883,387	-4,27
883,555	9,66
883,723	4,95
883,891	20,51
884,059	24,61
884,227	22,77
884,395	-12,46
884,563	-22,9
884,731	-12,66
884,899	-36,83
885,067	23,79
885,235	25,84
885,403	4,33
885,571	3,93
885,739	4,33
