Data from Subt14__1__10-05-29-873.txt Node

Date: Mon Feb 19 10:05:29 CET 2024
User: Versuch 234
Spectrometer: USB4F03543
Trigger mode: 4
Integration Time (sec): 1,000000E-1
Scans to average: 10
Electric dark correction enabled: true
Nonlinearity correction enabled: false
Boxcar width: 0
XAxis mode: Wavelengths
Number of Pixels in Spectrum: 3648
>>>>>Begin Spectral Data<<<<<
179,969	-19,18
180,181	-19,18
180,394	-19,18
180,606	18,91
180,819	18,7
181,031	-16,52
181,243	-18,16
181,456	0,27
181,668	0,68
181,88	5,8
182,093	31,4
182,305	7,85
182,518	-4,23
182,73	0,68
182,942	2,53
183,155	-10,99
183,367	0,68
183,579	-7,51
183,791	-7,3
184,004	0,89
184,216	14,2
184,428	5,19
184,641	11,13
184,853	3,55
185,065	-20,21
185,277	0,89
185,49	25,46
185,702	-26,96
185,914	13,18
186,126	-2,59
186,338	-31,88
186,551	9,49
186,763	26,9
186,975	6,83
187,187	3,35
187,399	19,32
187,612	2,94
187,824	10,72
188,036	-43,96
188,248	2,32
188,46	2,12
188,672	-12,83
188,885	-12,63
189,097	10,51
189,309	-18,36
189,521	1,91
189,733	19,32
189,945	5,39
190,157	-12,01
190,369	-10,38
190,581	-6,49
190,794	2,12
191,006	-0,75
191,218	3,75
191,43	12,15
191,642	14,61
191,854	8,06
192,066	-3,21
192,278	-4,85
192,49	18,5
192,702	4,98
192,914	-22,46
193,126	4,16
193,338	11,33
193,55	-1,37
193,762	19,32
193,974	-17,95
194,186	9,08
194,398	-12,63
194,61	5,6
194,822	46,35
195,034	11,74
195,246	7,85
195,457	6,83
195,669	10,92
195,881	1,3
196,093	-1,77
196,305	12,56
196,517	3,55
196,729	9,69
196,941	-6,08
197,153	-27,99
197,365	-5,05
197,576	23,62
197,788	3,14
198	-15,91
198,212	12,15
198,424	21,37
198,636	5,39
198,847	6,83
199,059	10,92
199,271	-26,35
199,483	-8,94
199,695	4,37
199,906	-19,59
200,118	17,48
200,33	3,14
200,542	27,31
200,753	-15,91
200,965	-1,16
201,177	9,49
201,389	-4,03
201,6	2,73
201,812	-20,82
202,024	21,37
202,235	-16,73
202,447	-3,21
202,659	-3,62
202,871	3,35
203,082	-25,53
203,294	10,1
203,506	1,71
203,717	-38,43
203,929	-19,18
204,141	-16,52
204,352	14,81
204,564	8,26
204,775	6,42
204,987	-6,89
205,199	-9,97
205,41	-4,44
205,622	-10,79
205,833	38,37
206,045	-18,36
206,257	6,01
206,468	7,65
206,68	-2,8
206,891	-18,57
207,103	13,99
207,314	29,97
207,526	20,34
207,737	16,45
207,949	-0,14
208,16	-6,08
208,372	8,26
208,583	-16,52
208,795	3,35
209,006	-13,04
209,218	9,9
209,429	20,55
209,641	23,01
209,852	2,12
210,064	-17,54
210,275	38,37
210,487	-4,64
210,698	0,68
210,909	-8,33
211,121	-21,64
211,332	11,95
211,544	-14,68
211,755	25,67
211,966	21,98
212,178	18,3
212,389	8,06
212,6	17,68
212,812	7,24
213,023	5,6
213,234	16,04
213,446	31,61
213,657	9,28
213,868	4,37
214,08	11,95
214,291	0,68
214,502	-2,39
214,714	-40,07
214,925	5,19
215,136	1,3
215,347	-17,54
215,559	2,94
215,77	-0,55
215,981	-9,15
216,192	0,48
216,404	-6,28
216,615	1,3
216,826	-13,24
217,037	-18,16
217,249	5,6
217,46	-9,76
217,671	-26,35
217,882	-8,74
218,093	-1,77
218,304	5,6
218,516	-12,83
218,727	-27,37
218,938	8,67
219,149	12,56
219,36	-14,06
219,571	11,13
219,782	20,55
219,993	5,8
220,205	-2,59
220,416	21,57
220,627	3,75
220,838	8,26
221,049	-15,7
221,26	20,34
221,471	17,07
221,682	-5,87
221,893	-14,27
222,104	-7,92
222,315	-12,83
222,526	-17,54
222,737	26,49
222,948	12,97
223,159	5,8
223,37	-6,69
223,581	-6,49
223,792	-15,5
224,003	5,8
224,214	-1,98
224,425	11,95
224,636	4,16
224,847	-4,64
225,058	11,13
225,269	11,13
225,48	-20
225,691	0,89
225,902	-8,12
226,112	-6,89
226,323	-16,11
226,534	-16,52
226,745	-18,16
226,956	9,49
227,167	-42,32
227,378	-5,46
227,589	6,83
227,799	6,62
228,01	-4,64
228,221	15,02
228,432	5,8
228,643	-13,45
228,853	-7,92
229,064	11,74
229,275	-1,98
229,486	-14,47
229,697	17,68
229,907	-14,06
230,118	-2,59
230,329	-16,93
230,54	13,99
230,75	19,93
230,961	7,03
231,172	1,5
231,383	1,5
231,593	14,81
231,804	-12,22
232,015	-18,36
232,225	-26,35
232,436	-2,59
232,647	-12,01
232,857	0,48
233,068	13,79
233,279	10,51
233,489	-17,13
233,7	1,71
233,91	14,2
234,121	2,53
234,332	-0,55
234,542	12,15
234,753	10,31
234,964	8,67
235,174	15,84
235,385	17,07
235,595	-16,11
235,806	6,42
236,016	29,97
236,227	9,08
236,437	12,15
236,648	16,66
236,858	13,79
237,069	-5,46
237,279	32,02
237,49	13,79
237,7	14,61
237,911	-0,14
238,121	-0,96
238,332	10,51
238,542	13,99
238,753	30,58
238,963	3,96
239,174	14,81
239,384	-41,92
239,595	3,55
239,805	23,21
240,015	11,13
240,226	10,72
240,436	-3
240,647	-4,03
240,857	12,15
241,067	5,39
241,278	-14,88
241,488	-12,22
241,698	-2,8
241,909	14,81
242,119	8,67
242,329	8,67
242,54	-11,81
242,75	-12,42
242,96	3,96
243,171	8,26
243,381	18,5
243,591	-1,37
243,801	11,54
244,012	36,32
244,222	-7,3
244,432	-7,92
244,642	17,07
244,853	-15,09
245,063	2,32
245,273	-5,46
245,483	14,4
245,694	-21,44
245,904	30,38
246,114	13,58
246,324	-4,03
246,534	-8,94
246,744	3,14
246,955	18,91
247,165	-14,68
247,375	11,33
247,585	16,45
247,795	-19,59
248,005	35,5
248,215	-19,18
248,425	-13,86
248,636	20,75
248,846	-13,45
249,056	5,39
249,266	11,33
249,476	-17,34
249,686	-15,91
249,896	17,27
250,106	-25,74
250,316	-3
250,526	19,73
250,736	-14,88
250,946	7,65
251,156	9,08
251,366	11,74
251,576	8,26
251,786	-16,52
251,996	5,19
252,206	-14,47
252,416	-5,87
252,626	12,56
252,836	25,05
253,046	-5,05
253,256	14,61
253,466	24,03
253,676	-12,63
253,885	-30,86
254,095	5,39
254,305	8,46
254,515	-1,98
254,725	25,87
254,935	1,09
255,145	-10,99
255,355	18,5
255,564	-8,12
255,774	-13,65
255,984	-31,68
256,194	-16,32
256,404	10,1
256,614	-3,82
256,823	-11,2
257,033	-5,26
257,243	30,58
257,453	12,56
257,662	10,51
257,872	0,48
258,082	22,19
258,292	27,92
258,501	1,5
258,711	10,72
258,921	-9,56
259,131	26,49
259,34	-5,26
259,55	7,44
259,76	-4,85
259,969	10,1
260,179	2,32
260,389	27,92
260,598	-10,58
260,808	-6,49
261,018	-0,96
261,227	1,71
261,437	9,49
261,647	-9,56
261,856	-9,76
262,066	3,75
262,275	-3,82
262,485	19,73
262,694	-2,18
262,904	2,32
263,114	2,12
263,323	-19,18
263,533	0,89
263,742	-1,16
263,952	-16,32
264,161	-19,59
264,371	-16,11
264,58	-23,48
264,79	6,42
264,999	14,81
265,209	25,05
265,418	4,37
265,628	-8,94
265,837	25,05
266,047	7,44
266,256	9,9
266,466	-0,14
266,675	-28,6
266,884	27,51
267,094	-0,14
267,303	-10,38
267,513	33,25
267,722	-8,33
267,931	-1,16
268,141	26,08
268,35	28,74
268,559	-10,17
268,769	45,94
268,978	11,74
269,187	13,99
269,397	15,43
269,606	-5,46
269,815	7,44
270,025	7,03
270,234	16,66
270,443	-15,5
270,653	-7,51
270,862	5,39
271,071	-13,65
271,28	13,79
271,49	22,19
271,699	-13,24
271,908	53,93
272,117	22,6
272,327	40,21
272,536	-24,3
272,745	-10,38
272,954	7,24
273,163	17,89
273,372	18,91
273,582	15,63
273,791	1,09
274	-12,63
274,209	-0,34
274,418	20,75
274,627	-10,99
274,836	-8,74
275,046	4,57
275,255	13,79
275,464	4,37
275,673	19,11
275,882	-6,08
276,091	10,51
276,3	24,85
276,509	2,73
276,718	-2,18
276,927	8,06
277,136	-31,88
277,345	-8,94
277,554	25,67
277,763	6,83
277,972	-4,03
278,181	-13,24
278,39	-10,38
278,599	41,03
278,808	3,96
279,017	-9,56
279,226	7,03
279,435	13,99
279,644	-15,91
279,853	-33,72
280,062	-25,33
280,271	-4,44
280,48	1,71
280,688	-7,51
280,897	-10,99
281,106	6,21
281,315	48,4
281,524	1,5
281,733	32,84
281,942	29,76
282,151	18,3
282,359	23,21
282,568	-8,33
282,777	-15,09
282,986	8,67
283,195	14,2
283,403	4,78
283,612	5,39
283,821	-11,4
284,03	-17,75
284,238	14,81
284,447	6,01
284,656	6,21
284,865	-36,8
285,073	-19,18
285,282	7,44
285,491	-10,79
285,699	9,28
285,908	-20,41
286,117	9,9
286,325	-8,12
286,534	-6,49
286,743	3,75
286,951	-4,64
287,16	-1,57
287,369	3,14
287,577	3,55
287,786	20,34
287,995	1,09
288,203	-10,99
288,412	20,34
288,62	8,67
288,829	4,98
289,037	3,35
289,246	16,86
289,455	9,9
289,663	45,53
289,872	27,51
290,08	12,15
290,289	11,33
290,497	-4,64
290,706	20,34
290,914	1,5
291,123	-4,03
291,331	11,74
291,54	10,72
291,748	-18,77
291,957	-19,59
292,165	6,42
292,373	-14,27
292,582	1,09
292,79	20,55
292,999	-2,8
293,207	7,24
293,415	1,5
293,624	-0,75
293,832	12,15
294,041	-21,64
294,249	-7,71
294,457	5,8
294,666	9,49
294,874	-27,99
295,082	-3,41
295,291	6,83
295,499	13,18
295,707	17,27
295,915	12,97
296,124	18,7
296,332	4,98
296,54	24,23
296,749	18,7
296,957	-5,87
297,165	9,28
297,373	21,57
297,581	3,96
297,79	-32,7
297,998	13,18
298,206	-14,68
298,414	6,21
298,622	-7,1
298,831	16,25
299,039	-20,82
299,247	5,19
299,455	-7,71
299,663	-25,12
299,871	-22,25
300,08	4,16
300,288	14,2
300,496	-10,58
300,704	3,14
300,912	13,58
301,12	-23,07
301,328	12,36
301,536	34,88
301,744	-6,08
301,952	21,37
302,16	8,87
302,368	-0,14
302,576	-17,54
302,784	-6,08
302,992	16,86
303,2	19,93
303,408	-12,22
303,616	3,96
303,824	2,32
304,032	-8,33
304,24	36,11
304,448	19,93
304,656	-19,59
304,864	23,01
305,072	-3,62
305,28	10,31
305,488	9,28
305,696	-6,69
305,904	-15,09
306,111	10,31
306,319	-8,12
306,527	7,44
306,735	17,68
306,943	9,9
307,151	-5,67
307,359	15,43
307,566	-4,03
307,774	-0,96
307,982	17,07
308,19	22,39
308,398	5,19
308,605	-14,06
308,813	14,81
309,021	-18,77
309,229	4,16
309,436	-19,59
309,644	19,52
309,852	10,92
310,06	19,32
310,267	-6,89
310,475	15,22
310,683	-18,36
310,89	19,32
311,098	17,07
311,306	22,39
311,513	-15,5
311,721	-5,05
311,929	-5,87
312,136	7,03
312,344	-22,66
312,552	-3
312,759	19,52
312,967	-6,49
313,174	4,98
313,382	-19,39
313,589	24,03
313,797	-23,07
314,005	7,24
314,212	19,52
314,42	-31,88
314,627	-3,62
314,835	11,95
315,042	3,14
315,25	-11,4
315,457	5,6
315,665	7,44
315,872	15,22
316,08	-4,23
316,287	-28,4
316,495	41,03
316,702	-19,18
316,909	4,78
317,117	-4,23
317,324	-20,62
317,532	17,48
317,739	-4,85
317,946	12,97
318,154	-0,75
318,361	-10,99
318,569	10,92
318,776	8,26
318,983	-9,76
319,191	-6,89
319,398	9,28
319,605	-0,96
319,813	19,32
320,02	-3,82
320,227	16,86
320,434	16,25
320,642	8,06
320,849	30,17
321,056	0,89
321,264	-33,72
321,471	1,09
321,678	-12,63
321,885	21,98
322,092	28,54
322,3	7,65
322,507	3,96
322,714	-35,36
322,921	3,75
323,128	-5,87
323,336	-27,78
323,543	18,3
323,75	17,68
323,957	-12,63
324,164	-25,53
324,371	6,21
324,578	2,32
324,786	-3,62
324,993	-17,75
325,2	10,72
325,407	-18,16
325,614	12,77
325,821	15,43
326,028	-0,14
326,235	-8,53
326,442	16,66
326,649	-8,94
326,856	-0,75
327,063	18,09
327,27	16,66
327,477	-31,06
327,684	-2,59
327,891	9,08
328,098	-12,01
328,305	7,65
328,512	8,46
328,719	12,36
328,926	-12,22
329,133	-15,7
329,34	12,36
329,546	-10,17
329,753	-1,77
329,96	4,16
330,167	0,07
330,374	11,95
330,581	11,74
330,788	-18,98
330,995	2,94
331,201	7,44
331,408	-8,94
331,615	14,2
331,822	9,69
332,029	5,8
332,235	10,72
332,442	-7,92
332,649	7,85
332,856	-6,08
333,062	3,14
333,269	-15,7
333,476	-18,77
333,683	13,99
333,889	-4,03
334,096	19,73
334,303	-13,04
334,509	-29,83
334,716	19,73
334,923	-6,69
335,129	12,77
335,336	25,26
335,543	-12,63
335,749	-5,87
335,956	19,73
336,163	-25,12
336,369	3,75
336,576	3,55
336,782	-5,05
336,989	4,16
337,196	0,68
337,402	19,52
337,609	-13,04
337,815	3,75
338,022	-9,97
338,228	2,53
338,435	12,97
338,641	14,61
338,848	-32,9
339,054	-6,49
339,261	-15,29
339,467	2,73
339,674	17,27
339,88	-0,55
340,087	26,08
340,293	-18,57
340,5	-12,01
340,706	-16,32
340,912	-22,05
341,119	-1,37
341,325	-2,8
341,532	6,21
341,738	-13,04
341,944	7,44
342,151	24,64
342,357	-14,27
342,563	9,49
342,77	-18,57
342,976	-0,75
343,182	12,36
343,389	-29,42
343,595	24,85
343,801	7,24
344,007	0,89
344,214	-28,19
344,42	17,89
344,626	18,91
344,832	18,3
345,039	18,91
345,245	-6,08
345,451	-13,24
345,657	-5,05
345,864	13,38
346,07	-3,41
346,276	-3,82
346,482	-4,23
346,688	-21,23
346,894	0,48
347,1	-3,21
347,307	9,28
347,513	-8,94
347,719	8,46
347,925	10,72
348,131	12,15
348,337	-14,68
348,543	12,56
348,749	14,2
348,955	-25,12
349,161	-3,82
349,367	12,15
349,573	-16,11
349,779	23,62
349,985	5,6
350,191	-0,14
350,397	-4,85
350,603	-7,3
350,809	3,14
351,015	-21,23
351,221	10,72
351,427	-6,28
351,633	25,67
351,839	-9,15
352,045	5,19
352,251	22,6
352,457	-7,92
352,663	9,9
352,869	-14,06
353,075	7,03
353,28	-3,82
353,486	-13,24
353,692	5,39
353,898	4,37
354,104	-7,71
354,31	-21,85
354,515	12,15
354,721	17,27
354,927	-9,15
355,133	20,14
355,339	-18,57
355,544	7,85
355,75	18,09
355,956	-6,49
356,162	5,6
356,367	-12,42
356,573	18,91
356,779	27,31
356,984	8,06
357,19	-6,89
357,396	-21,64
357,602	-23,48
357,807	-16,32
358,013	9,69
358,218	-29,01
358,424	19,32
358,63	4,16
358,835	-34,13
359,041	-14,88
359,247	19,52
359,452	-10,99
359,658	-14,68
359,863	3,55
360,069	-19,59
360,274	-8,33
360,48	-27,17
360,685	-20,82
360,891	26,69
361,097	0,48
361,302	-20
361,508	17,27
361,713	-7,51
361,918	6,62
362,124	2,94
362,329	4,98
362,535	-33,72
362,74	-2,18
362,946	-1,77
363,151	9,28
363,357	-5,67
363,562	-12,01
363,767	-2,39
363,973	-3,41
364,178	-6,49
364,383	-18,36
364,589	3,14
364,794	-0,75
365	42,67
365,205	39,39
365,41	-8,53
365,615	4,98
365,821	-11,61
366,026	7,03
366,231	4,78
366,437	15,43
366,642	11,33
366,847	17,27
367,052	6,42
367,258	3,14
367,463	-28,81
367,668	-7,1
367,873	27,51
368,078	1,71
368,284	9,9
368,489	-6,89
368,694	15,02
368,899	14,81
369,104	-12,83
369,309	-15,5
369,515	9,49
369,72	-16,11
369,925	-14,27
370,13	-7,3
370,335	-9,56
370,54	-5,46
370,745	25,87
370,95	29,76
371,155	1,09
371,36	-13,65
371,565	-8,94
371,77	-21,64
371,975	-20,82
372,18	-22,25
372,385	11,54
372,59	-3,82
372,795	-7,3
373	27,31
373,205	13,58
373,41	-24,92
373,615	-10,38
373,82	4,98
374,025	8,87
374,23	-9,35
374,435	-17,34
374,64	-28,19
374,845	19,32
375,05	-12,22
375,254	3,55
375,459	-16,11
375,664	1,91
375,869	-8,74
376,074	-7,51
376,279	-20,82
376,483	-19,18
376,688	9,69
376,893	-2,8
377,098	-7,71
377,303	2,32
377,507	-26,96
377,712	12,77
377,917	31,4
378,122	-38,02
378,326	2,12
378,531	6,62
378,736	-13,45
378,94	12,15
379,145	20,34
379,35	-0,75
379,554	2,12
379,759	7,85
379,964	11,74
380,168	-0,34
380,373	-27,37
380,578	5,39
380,782	0,68
380,987	-5,05
381,191	-10,38
381,396	6,62
381,601	-17,75
381,805	2,32
382,01	-13,45
382,214	21,16
382,419	-0,96
382,623	15,43
382,828	-3,21
383,032	-7,92
383,237	2,73
383,441	-12,22
383,646	-24,71
383,85	-12,01
384,055	-23,28
384,259	-2,18
384,464	-29,42
384,668	9,9
384,872	10,72
385,077	5,6
385,281	1,5
385,486	23,21
385,69	4,37
385,894	11,95
386,099	-28,19
386,303	-20,82
386,507	9,49
386,712	-12,63
386,916	-7,51
387,12	2,12
387,325	4,37
387,529	21,57
387,733	31,4
387,937	6,42
388,142	-0,34
388,346	11,74
388,55	-4,64
388,754	23,21
388,959	-5,87
389,163	-17,75
389,367	15,63
389,571	0,07
389,775	35,29
389,98	16,86
390,184	19,73
390,388	24,44
390,592	12,15
390,796	-3,41
391	-17,75
391,204	-1,98
391,409	-10,99
391,613	-17,34
391,817	6,01
392,021	44,92
392,225	-16,11
392,429	42,05
392,633	-9,35
392,837	17,27
393,041	7,03
393,245	-4,85
393,449	12,97
393,653	0,07
393,857	0,68
394,061	22,8
394,265	8,06
394,469	26,49
394,673	31,2
394,877	39,8
395,081	18,5
395,285	-7,3
395,489	15,84
395,693	4,16
395,896	23,62
396,1	-12,83
396,304	12,36
396,508	7,85
396,712	9,49
396,916	25,05
397,12	16,86
397,323	30,99
397,527	35,7
397,731	7,24
397,935	35,29
398,139	39,39
398,342	30,38
398,546	33,45
398,75	38,57
398,954	-8,94
399,157	55,77
399,361	16,66
399,565	42,05
399,769	17,27
399,972	25,05
400,176	80,76
400,38	21,78
400,583	43,08
400,787	50,45
400,991	44,71
401,194	31,4
401,398	41,64
401,601	20,96
401,805	66,22
402,009	42,46
402,212	18,91
402,416	50,65
402,619	17,27
402,823	55,98
403,026	36,32
403,23	18,91
403,433	44,51
403,637	51,68
403,841	57,21
404,044	62,12
404,247	47,38
404,451	50,65
404,654	36,32
404,858	57,21
405,061	33,86
405,265	55,57
405,468	52,09
405,672	14,81
405,875	53,73
406,078	58,03
406,282	50,65
406,485	58,44
406,689	25,46
406,892	68,27
407,095	62,33
407,299	94,48
407,502	58,84
407,705	57
407,909	85,47
408,112	80,14
408,315	72,98
408,518	48,81
408,722	46,56
408,925	48,61
409,128	56,8
409,331	77,48
409,535	50,04
409,738	52,29
409,941	66,01
410,144	66,01
410,347	70,11
410,551	82,81
410,754	60,69
410,957	59,87
411,16	73,18
411,363	93,46
411,566	80,96
411,769	73,39
411,973	60,28
412,176	65,4
412,379	66,42
412,582	59,66
412,785	84,24
412,988	60,28
413,191	75,02
413,394	89,36
413,597	79,53
413,8	106,15
414,003	95,71
414,206	66,42
414,409	74,82
414,612	63,96
414,815	77,69
415,018	65,6
415,221	105,54
415,424	89,97
415,627	77,28
415,83	80,96
416,033	88,54
416,235	83,01
416,438	70,31
416,641	93,25
416,844	93,46
417,047	67,45
417,25	81,58
417,453	72,98
417,655	70,52
417,858	62,94
418,061	84,24
418,264	86,9
418,467	78,71
418,669	64,17
418,872	72,98
419,075	63,96
419,278	85,67
419,48	94,27
419,683	66,01
419,886	76,05
420,089	97,96
420,291	103,9
420,494	66,63
420,697	96,32
420,899	98,99
421,102	50,24
421,305	108
421,507	53,32
421,71	116,19
421,912	72,57
422,115	85,88
422,318	72,57
422,52	69,49
422,723	72,36
422,925	105,13
423,128	80,35
423,33	90,59
423,533	82,6
423,735	82,81
423,938	75,64
424,14	84,85
424,343	91
424,545	91
424,748	67,24
424,95	87,93
425,153	91,61
425,355	98,78
425,558	75,23
425,76	98,99
425,962	93,46
426,165	96,12
426,367	95,71
426,57	81,37
426,772	68,06
426,974	102,47
427,177	71,95
427,379	88,54
427,581	88,75
427,784	97,96
427,986	61,92
428,188	108,2
428,39	74,61
428,593	67,45
428,795	58,03
428,997	73,39
429,2	51,06
429,402	14,81
429,604	41,03
429,806	65,19
430,008	61,3
430,211	46,76
430,413	103,29
430,615	48,4
430,817	91,61
431,019	108
431,221	87,31
431,423	84,44
431,626	88,34
431,828	53,73
432,03	87,11
432,232	103,08
432,434	108,82
432,636	81,99
432,838	111,89
433,04	92,23
433,242	73,39
433,444	93,87
433,646	96,73
433,848	93,25
434,05	91
434,252	92,43
434,454	95,71
434,656	59,87
434,858	95,09
435,06	100,01
435,262	102,47
435,464	106,56
435,666	105,54
435,868	129,09
436,07	112,91
436,271	93,25
436,473	100,83
436,675	114,55
436,877	120,28
437,079	91,61
437,281	113,53
437,482	111,68
437,684	110,45
437,886	107,59
438,088	75,84
438,29	120,69
438,491	80,55
438,693	105,54
438,895	60,89
439,097	97,96
439,298	67,65
439,5	81,78
439,702	106,15
439,903	108,82
440,105	70,31
440,307	68,47
440,508	105,54
440,71	116,39
440,912	117,01
441,113	137,08
441,315	101,24
441,517	99,19
441,718	108,41
441,92	120,28
442,121	124,38
442,323	86,9
442,524	139,13
442,726	131,96
442,928	101,85
443,129	124,38
443,331	128,68
443,532	104,31
443,734	102,88
443,935	115,16
444,136	103,29
444,338	121,51
444,539	116,39
444,741	106,77
444,942	91
445,144	100,42
445,345	128,27
445,546	130,73
445,748	85,26
445,949	125,2
446,151	112,5
446,352	130,93
446,553	116,39
446,755	98,58
446,956	122,33
447,157	110,86
447,359	132,98
447,56	135,44
447,761	162,88
447,962	83,83
448,164	124,38
448,365	89,77
448,566	96,12
448,767	115,57
448,969	166,98
449,17	123,36
449,371	132,78
449,572	151,62
449,773	130,93
449,974	78,1
450,176	137,9
450,377	111,07
450,578	134,42
450,779	117,01
450,98	133,8
451,181	138,72
451,382	111,68
451,583	154,69
451,784	98,58
451,986	113,94
452,187	99,6
452,388	85,88
452,589	134,01
452,79	117,83
452,991	117,42
453,192	128,68
453,393	113,53
453,594	129,91
453,795	129,5
453,995	118,65
454,196	100,62
454,397	131,14
454,598	118,03
454,799	97,76
455	117,21
455,201	120,28
455,402	123,36
455,603	133,8
455,804	145,06
456,004	113,94
456,205	102,47
456,406	139,33
456,607	155,1
456,808	109,84
457,008	135,64
457,209	151,41
457,41	139,33
457,611	105,74
457,811	142,2
458,012	141,79
458,213	121,51
458,414	143,02
458,614	143,63
458,815	117,01
459,016	114,96
459,216	121,72
459,417	120,69
459,618	153,87
459,818	139,13
460,019	125,81
460,22	155,71
460,42	151,21
460,621	145,47
460,821	137,69
461,022	125,61
461,223	144,65
461,423	151,41
461,624	146,09
461,824	139,33
462,025	165,95
462,225	149,77
462,426	160,01
462,626	133,19
462,827	106,77
463,027	156,12
463,228	111,68
463,428	138,92
463,628	122,95
463,829	159,81
464,029	152,85
464,23	151,62
464,43	123,97
464,63	140,15
464,831	171,89
465,031	135,03
465,231	151,21
465,432	133,19
465,632	130,52
465,832	138,31
466,033	141,58
466,233	136,26
466,433	150,8
466,634	146,7
466,834	156,74
467,034	154,69
467,234	177,63
467,435	166,57
467,635	161,65
467,835	149,16
468,035	134,21
468,235	143,43
468,436	151,41
468,636	156,53
468,836	148,34
469,036	133,19
469,236	150,39
469,436	177,63
469,636	146,91
469,836	162,06
470,037	171,28
470,237	165,13
470,437	175,99
470,637	170,46
470,837	175,58
471,037	171,69
471,237	182,54
471,437	187,46
471,637	161,45
471,837	196,67
472,037	178,24
472,237	150,59
472,437	167,18
472,637	198,93
472,837	186,84
473,036	187,46
473,236	209,37
473,436	219,41
473,636	175,37
473,836	203,02
474,036	220,43
474,236	172,51
474,436	220,63
474,635	198,93
474,835	184,18
475,035	230,06
475,235	174,76
475,435	219,2
475,634	206,09
475,834	180,9
476,034	199,75
476,234	202
476,433	190,53
476,633	197,7
476,833	202
477,033	190,73
477,232	182,13
477,432	224,32
477,632	196,26
477,831	193,4
478,031	220,22
478,231	203,43
478,43	202,41
478,63	247,46
478,829	232,31
479,029	239,27
479,229	230,67
479,428	235,79
479,628	255,45
479,827	249,72
480,027	218,38
480,226	221,25
480,426	254,22
480,625	247,46
480,825	275,11
481,024	250,53
481,224	258,11
481,423	238,66
481,623	263,44
481,822	272,45
482,021	261,18
482,221	265,49
482,42	261,59
482,62	267,12
482,819	263,03
483,018	246,64
483,218	273,47
483,417	234,56
483,616	270,2
483,816	275,52
484,015	232,72
484,214	291,08
484,414	232,1
484,613	220,02
484,812	187,87
485,011	195,24
485,211	219,82
485,41	223,3
485,609	228,01
485,808	248,69
486,008	267,74
486,207	264,26
486,406	267,94
486,605	237,02
486,804	262,82
487,003	282,28
487,203	284,94
487,402	277,36
487,601	260,16
487,8	290,68
487,999	279,21
488,198	276,54
488,397	286,78
488,596	278,39
488,795	263,64
488,994	284,94
489,193	302,96
489,392	250,74
489,591	287,4
489,79	285,35
489,989	311,77
490,188	300,51
490,387	282,28
490,586	270,6
490,785	237,22
490,984	287,81
491,183	258,11
491,382	282,28
491,581	266,1
491,779	317,3
491,978	291,08
492,177	277,16
492,376	284,94
492,575	322,21
492,774	286,99
492,972	290,68
493,171	305,22
493,37	305,42
493,569	311,77
493,768	299,28
493,966	310,13
494,165	307,06
494,364	310,13
494,563	277,57
494,761	348,84
494,96	300,71
495,159	297,64
495,357	324,88
495,556	317,3
495,755	306,44
495,953	325,9
496,152	278,59
496,35	317,5
496,549	292,52
496,748	303,78
496,946	308,9
497,145	278,8
497,343	266,51
497,542	249,31
497,74	296,2
497,939	308,29
498,137	293,34
498,336	327,54
498,534	290,88
498,733	278,18
498,931	275,32
499,13	263,85
499,328	279,21
499,527	265,69
499,725	283,1
499,924	286,17
500,122	291,08
500,32	254,43
500,519	289,04
500,717	256,88
500,915	271,01
501,114	260,37
501,312	279,82
501,51	281,05
501,709	275,93
501,907	340,65
502,105	254,63
502,304	291,49
502,502	275,72
502,7	273,06
502,898	247,26
503,097	293,34
503,295	296,82
503,493	278,59
503,691	303,37
503,889	252,79
504,088	267,94
504,286	314,23
504,484	298,05
504,682	294,36
504,88	303,37
505,078	248,49
505,276	299,48
505,474	298,87
505,672	312,18
505,871	274,09
506,069	284,53
506,267	260,57
506,465	285,76
506,663	265,69
506,861	250,53
507,059	269,38
507,257	250,53
507,455	310,95
507,653	297,23
507,851	307,06
508,049	288,42
508,246	324,88
508,444	278,39
508,642	308,9
508,84	239,07
509,038	274,91
509,236	274,09
509,434	313,82
509,632	284,33
509,829	284,12
510,027	298,87
510,225	301,73
510,423	319,96
510,621	308,9
510,818	312,59
511,016	304,6
511,214	285,56
511,412	287,19
511,609	269,58
511,807	245,62
512,005	287,6
512,203	301,32
512,4	281,25
512,598	282,28
512,796	289,24
512,993	267,74
513,191	290,27
513,389	290,27
513,586	241,11
513,784	311,56
513,981	315,66
514,179	264,87
514,377	304,4
514,574	296
514,772	341,87
514,969	277,16
515,167	278,39
515,364	256,88
515,562	265,28
515,759	267,53
515,957	250,13
516,154	273,88
516,352	243,16
516,549	256,88
516,746	279,82
516,944	252,79
517,141	247,05
517,339	267,74
517,536	257,5
517,733	260,57
517,931	280,64
518,128	264,26
518,325	307,88
518,523	278,59
518,72	320,37
518,917	306,65
519,115	296,82
519,312	283,51
519,509	301,32
519,707	309,11
519,904	316,89
520,101	312,18
520,298	294,77
520,495	329,18
520,693	309,52
520,89	301,53
521,087	325,49
521,284	296,82
521,481	311,56
521,678	289,04
521,876	319,55
522,073	333,68
522,27	307,88
522,467	359,49
522,664	304,6
522,861	339,42
523,058	300,3
523,255	359,49
523,452	336,75
523,649	319,14
523,846	305,42
524,043	322,62
524,24	323,44
524,437	312,79
524,634	293,54
524,831	296,41
525,028	325,7
525,225	308,49
525,422	287,81
525,619	263,64
525,816	294,77
526,013	268,56
526,209	289,65
526,406	301,53
526,603	293,75
526,8	273,68
526,997	307,06
527,194	303,78
527,39	340,24
527,587	318,53
527,784	353,14
527,981	342,49
528,177	332,66
528,374	332,45
528,571	319,14
528,768	329,38
528,964	332,86
529,161	314,84
529,358	329,18
529,554	298,25
529,751	322,62
529,948	330,41
530,144	347,81
530,341	325,29
530,537	326,1
530,734	313,2
530,931	318,94
531,127	320,58
531,324	300,1
531,52	305,83
531,717	279,82
531,913	280,23
532,11	318,94
532,306	327,54
532,503	314,64
532,699	355,6
532,896	338,19
533,092	342,9
533,289	315,66
533,485	320,98
533,682	291,7
533,878	324,67
534,074	363,58
534,271	328,56
534,467	342,49
534,664	352,11
534,86	342,49
535,056	353,55
535,253	325,7
535,449	319,35
535,645	334,91
535,841	320,17
536,038	326,1
536,234	317,5
536,43	355,6
536,626	330,2
536,823	330,41
537,019	331,63
537,215	339,01
537,411	352,52
537,607	335,53
537,804	321,39
538	339,83
538,196	330,41
538,392	285,56
538,588	309,11
538,784	336,96
538,98	304,6
539,176	315,87
539,373	300,91
539,569	305,83
539,765	312,18
539,961	308,7
540,157	320,17
540,353	365,43
540,549	329,18
540,745	310,95
540,941	316,68
541,137	336,96
541,333	317,5
541,528	322,62
541,724	313,82
541,92	358,67
542,116	299,48
542,312	331,63
542,508	331,02
542,704	322,01
542,9	324,88
543,096	343,72
543,291	309,31
543,487	340,65
543,683	344,33
543,879	311,77
544,075	336,34
544,27	356,62
544,466	322,42
544,662	355,6
544,858	342,28
545,053	357,85
545,249	348,43
545,445	342,28
545,64	356,01
545,836	349,25
546,032	326,72
546,227	350,68
546,423	344,13
546,619	364,81
546,814	366,86
547,01	334,3
547,205	369,93
547,401	380,17
547,597	365,43
547,792	358,05
547,988	382,01
548,183	355,6
548,379	360,51
548,574	377,3
548,77	422,15
548,965	400,04
549,161	405,36
549,356	385,7
549,552	398,4
549,747	399,63
549,942	421,75
550,138	413,96
550,333	403,93
550,529	407,61
550,724	416,63
550,919	453,69
551,115	446,32
551,31	435,67
551,505	448,78
551,701	416,42
551,896	447,14
552,091	455,95
552,287	459,02
552,482	466,6
552,677	503,87
552,872	468,44
553,067	517,59
553,263	513,08
553,458	517,39
553,653	475,61
553,848	559,98
554,043	520,87
554,239	548,1
554,434	554,45
554,629	566,95
554,824	579,64
555,019	564,49
555,214	583,74
555,409	572,89
555,604	571,66
555,799	603,6
555,994	623,27
556,189	601,97
556,384	619,17
556,579	629
556,774	652,76
556,969	708,26
557,164	668,93
557,359	672,83
557,554	676,72
557,749	708,46
557,944	701,09
558,139	721,77
558,334	772,77
558,529	781,57
558,724	791,2
558,918	775,22
559,113	824,99
559,308	852,43
559,503	870,86
559,698	857,35
559,893	887,04
560,087	909,37
560,282	909,78
560,477	940,5
560,672	964,66
560,866	996,41
561,061	994,77
561,256	1016,27
561,45	1070,34
561,645	1053,13
561,84	1062,55
562,034	1128,7
562,229	1117,64
562,424	1174,58
562,618	1209,8
562,813	1214,72
563,008	1246,05
563,202	1307,9
563,397	1323,47
563,591	1325,1
563,786	1359,31
563,98	1374,46
564,175	1461,29
564,369	1456,79
564,564	1486,69
564,758	1559,19
564,953	1547,92
565,147	1571,88
565,342	1604,65
565,536	1686,16
565,731	1715,65
565,925	1744,32
566,119	1760,5
566,314	1837,51
566,508	1835,87
566,703	1934,58
566,897	1930,89
567,091	1986,19
567,286	2048,04
567,48	2124,02
567,674	2129,55
567,868	2199,38
568,063	2243,41
568,257	2365,68
568,451	2373,46
568,646	2408,27
568,84	2464,18
569,034	2547,54
569,228	2598,33
569,422	2626,79
569,616	2728,17
569,811	2806,6
570,005	2861,49
570,199	2947,91
570,393	3015,5
570,587	3058,5
570,781	3163,77
570,975	3258,39
571,169	3304,26
571,364	3382,29
571,558	3502,3
571,752	3580,94
571,946	3637,26
572,14	3794,54
572,334	3871,75
572,528	3975,18
572,722	4114,85
572,916	4244,28
573,109	4227,08
573,303	4418,36
573,497	4516,45
573,691	4686,44
573,885	4755,45
574,079	4908,43
574,273	5019,43
574,467	5152,35
574,661	5348,34
574,854	5464,46
575,048	5520,98
575,242	5711,24
575,436	5835,14
575,63	6112,85
575,823	6208,9
576,017	6420,04
576,211	6504,21
576,405	6775,57
576,598	6867,73
576,792	7093,21
576,986	7232,47
577,18	7501,98
577,373	7702,07
577,567	7984,89
577,761	8146,48
577,954	8355,17
578,148	8524,33
578,341	8821,69
578,535	9010,93
578,729	9351,71
578,922	9455,54
579,116	9768,47
579,309	10010,74
579,503	10411,12
579,696	10641,52
579,89	11000,94
580,083	11085,52
580,277	11424,05
580,47	11793,09
580,664	12084,72
580,857	12349,52
581,051	12632,96
581,244	12948,15
581,437	13401,57
581,631	13629,3
581,824	14003,67
582,018	14292,23
582,211	14637,92
582,404	14936,11
582,598	15254,16
582,791	15629,14
582,984	15857,7
583,178	16366,21
583,371	16791,77
583,564	16970,97
583,757	17470,47
583,951	17846,89
584,144	18274,5
584,337	18642,32
584,53	19217,8
584,723	19404,98
584,917	20280,08
585,11	20737,6
585,303	21446,6
585,496	21471,18
585,689	22323,54
585,882	22554,96
586,075	23133,92
586,268	23597,38
586,462	24204,19
586,655	24835,79
586,848	25501,78
587,041	25749,38
587,234	26264,86
587,427	26682,44
587,62	27580,47
587,813	28178,89
588,006	28784,47
588,199	29026,75
588,392	29781,83
588,585	30512,96
588,777	31237,33
588,97	31644,67
589,163	32493,14
589,356	32970,52
589,549	33676,46
589,742	34276,51
589,935	35254,42
590,128	36064,59
590,32	36899,14
590,513	37280,27
590,706	38685,79
590,899	38687,84
591,092	39486,95
591,284	39580,34
591,477	40861,55
591,67	41629,95
591,863	42189,04
592,055	42657,41
592,248	43075,4
592,441	43634,3
592,633	44098,36
592,826	44298,66
593,019	45384,49
593,211	45941,13
593,404	46421,17
593,596	46830,15
593,789	47059,73
593,982	47374,5
594,174	47869,49
594,367	48109,52
594,559	48532,42
594,752	48179,97
594,944	48271,31
595,137	48937,72
595,329	49087,01
595,522	49217,88
595,714	49411,62
595,907	49217,67
596,099	48827,74
596,292	48808,49
596,484	48541,84
596,676	47913,53
596,869	47702,79
597,061	47574,59
597,253	47196,33
597,446	46079,37
597,638	46006,87
597,83	45097,98
598,023	44467,41
598,215	43877,18
598,407	42995,74
598,6	42180,65
598,792	41431,5
598,984	40097,45
599,176	39127,54
599,369	38149,22
599,561	37542,61
599,753	35992,71
599,945	35215,51
600,137	33925,08
600,329	33010,66
600,522	31935,07
600,714	31152,95
600,906	30097,43
601,098	29343,57
601,29	28148,17
601,482	27224,54
601,674	26331,01
601,866	25482,74
602,058	24526,34
602,25	23686,67
602,442	22879,77
602,634	22245,72
602,826	21368,37
603,018	20709,13
603,21	20145,12
603,402	19434,68
603,594	18574,94
603,786	17965,26
603,978	17224,51
604,17	16715,38
604,362	16159,77
604,554	15392,19
604,745	14906
604,937	14557,85
605,129	14065,31
605,321	13475,91
605,513	12977,43
605,704	12573,16
605,896	12116,67
606,088	11699,91
606,28	11266,97
606,471	10983,53
606,663	10616,12
606,855	10364,43
607,047	10020,37
607,238	9691,26
607,43	9143,84
607,622	8908,53
607,813	8593,75
608,005	8373,6
608,197	7982,64
608,388	7795,46
608,58	7502,6
608,771	7293,7
608,963	7038,73
609,154	6829,63
609,346	6498,07
609,537	6330,95
609,729	6180,02
609,921	5960,07
610,112	5711,44
610,303	5527,54
610,495	5366,98
610,686	5209,49
610,878	5028,24
611,069	4830,82
611,261	4694,83
611,452	4496,79
611,643	4299,78
611,835	4151,92
612,026	4048,7
612,217	3888,14
612,409	3735,15
612,6	3640,95
612,791	3488,99
612,983	3351,16
613,174	3302,42
613,365	3125,27
613,557	2956,31
613,748	2943,41
613,939	2777,32
614,13	2713,83
614,321	2574,98
614,513	2505,76
614,704	2392,91
614,895	2326,56
615,086	2252,83
615,277	2219,04
615,468	2112,96
615,659	2070,77
615,851	1963,66
616,042	1867,82
616,233	1866,38
616,424	1788,76
616,615	1709,3
616,806	1684,32
616,997	1649,09
617,188	1571,47
617,379	1528,26
617,57	1483,21
617,761	1446,96
617,952	1407,64
618,143	1354,39
618,334	1315,68
618,524	1286,81
618,715	1277,39
618,906	1178,26
619,097	1200,59
619,288	1143,86
619,479	1134,23
619,67	1133,62
619,86	1079,76
620,051	1042,69
620,242	999,07
620,433	1003,57
620,624	978,59
620,814	951,14
621,005	923,91
621,196	916,94
621,386	835,84
621,577	840,55
621,768	840,35
621,958	829,5
622,149	786,9
622,34	761,91
622,53	761,71
622,721	752,7
622,912	717,27
623,102	714,19
623,293	713,17
623,483	688,19
623,674	652,55
623,864	664,84
624,055	642,52
624,245	615,48
624,436	583,94
624,626	604,01
624,817	598,08
625,007	572,27
625,198	602,58
625,388	554,86
625,579	564,28
625,769	572,48
625,959	546,67
626,15	468,44
626,34	515,54
626,531	506,53
626,721	459,43
626,911	474,79
627,101	463,32
627,292	458,2
627,482	443,86
627,672	428,71
627,863	430,55
628,053	430,55
628,243	436,7
628,433	403,52
628,623	387,75
628,814	380,99
629,004	414,78
629,194	413,76
629,384	360,31
629,574	363,17
629,764	366,65
629,955	380,17
630,145	330
630,335	342,69
630,525	320,78
630,715	315,66
630,905	337,98
631,095	315,05
631,285	328,97
631,475	295,39
631,665	355,39
631,855	285,76
632,045	286,99
632,235	307,47
632,425	310,13
632,615	299,48
632,805	278,18
632,994	317,09
633,184	285,35
633,374	283,92
633,564	276,13
633,754	291,49
633,944	282,89
634,133	265,49
634,323	285,96
634,513	277,98
634,703	268,35
634,893	257,29
635,082	259,96
635,272	253,4
635,462	249,1
635,651	292,52
635,841	254,02
636,031	254,02
636,221	258,73
636,41	249,92
636,6	217,56
636,789	216,74
636,979	245,41
637,169	265,49
637,358	228,42
637,548	230,46
637,737	243,16
637,927	242,55
638,116	224,73
638,306	207,94
638,495	229,85
638,685	181,72
638,874	182,95
639,064	199,13
639,253	174,56
639,443	191,55
639,632	200,36
639,822	234,77
640,011	216,74
640,2	216,33
640,39	207,32
640,579	219,2
640,768	198,52
640,958	193,6
641,147	196,47
641,336	197,49
641,526	205,27
641,715	203,64
641,904	173,53
642,093	180,9
642,283	157,97
642,472	184,18
642,661	210,8
642,85	169,64
643,039	186,43
643,228	197,9
643,418	212,65
643,607	173,12
643,796	182,13
643,985	209,17
644,174	219,61
644,363	199,95
644,552	186,02
644,741	164,93
644,93	185,61
645,119	177,83
645,308	197,08
645,497	194,22
645,686	202
645,875	175,58
646,064	171,69
646,253	194,22
646,442	157,97
646,631	188,48
646,82	147,52
647,009	185,61
647,198	174,96
647,387	174,96
647,575	166,98
647,764	197,7
647,953	178,24
648,142	168,82
648,331	148,34
648,519	161,24
648,708	153,87
648,897	143,22
649,086	141,17
649,274	179,06
649,463	143,43
649,652	176,19
649,84	192,37
650,029	152,03
650,218	154,08
650,406	167,39
650,595	138,31
650,784	191,55
650,972	104,51
651,161	170,66
651,349	162,88
651,538	138,31
651,726	141,38
651,915	170,87
652,104	143,84
652,292	178,24
652,481	155,1
652,669	157,56
652,857	140,56
653,046	163,5
653,234	94,68
653,423	152,44
653,611	143,84
653,8	156,74
653,988	174,96
654,176	137,28
654,365	151,41
654,553	121,1
654,741	101,85
654,93	130,52
655,118	141,99
655,306	122,54
655,494	170,66
655,683	114,14
655,871	117,83
656,059	144,86
656,247	129,7
656,436	188,07
656,624	143,22
656,812	153,05
657	145,27
657,188	153,05
657,376	147,32
657,564	156,74
657,753	171,89
657,941	153,67
658,129	148,14
658,317	115,37
658,505	170,05
658,693	158,58
658,881	133,6
659,069	145,27
659,257	119,46
659,445	117,62
659,633	165,13
659,821	145,68
660,009	116,19
660,197	143,43
660,384	127,66
660,572	134,62
660,76	166,98
660,948	148,55
661,136	156,74
661,324	156,94
661,512	154,28
661,699	162,88
661,887	123,97
662,075	168
662,263	134,01
662,451	122,13
662,638	126,02
662,826	100,62
663,014	156,12
663,201	135,85
663,389	154,49
663,577	147,32
663,764	101,65
663,952	151,82
664,14	146,5
664,327	151
664,515	129,09
664,702	156,94
664,89	103,7
665,078	126,02
665,265	133,39
665,453	144,25
665,64	129,7
665,828	174,15
666,015	102,88
666,203	142,4
666,39	127,25
666,578	151,21
666,765	148,14
666,952	155,71
667,14	116,39
667,327	144,25
667,515	119,87
667,702	121,31
667,889	122,13
668,077	144,04
668,264	98,17
668,451	125,81
668,638	103,29
668,826	98,17
669,013	110,25
669,2	125,4
669,388	162,06
669,575	145,27
669,762	135,03
669,949	150,39
670,136	177,63
670,323	91,2
670,511	151
670,698	162,68
670,885	142,4
671,072	135,64
671,259	129,09
671,446	157,56
671,633	124,38
671,82	98,37
672,007	111,48
672,194	111,48
672,381	125,81
672,568	139,74
672,755	126,84
672,942	118,03
673,129	118,24
673,316	130,73
673,503	140,15
673,69	132,37
673,877	122,95
674,064	147,73
674,251	144,86
674,437	129,3
674,624	129,3
674,811	114,55
674,998	120,49
675,185	127,45
675,372	145,88
675,558	157,35
675,745	127,86
675,932	125,81
676,119	162,68
676,305	144,65
676,492	76,87
676,679	122,95
676,865	131,96
677,052	122,33
677,239	108,82
677,425	103,49
677,612	104,92
677,798	106,15
677,985	103,29
678,172	121,92
678,358	101,65
678,545	121,51
678,731	124,58
678,918	120,69
679,104	96,53
679,291	85,47
679,477	90,38
679,664	137,9
679,85	105,95
680,036	110,25
680,223	100,83
680,409	110,66
680,596	119,06
680,782	111,27
680,968	101,03
681,155	118,24
681,341	95,09
681,527	85,26
681,714	126,84
681,9	123,56
682,086	90,38
682,272	84,44
682,459	119,46
682,645	115,57
682,831	105,74
683,017	113,53
683,204	104,92
683,39	75,43
683,576	129,91
683,762	108,82
683,948	95,09
684,134	85,88
684,32	118,24
684,506	127,04
684,693	83,01
684,879	67,04
685,065	71,95
685,251	62,33
685,437	66,63
685,623	87,93
685,809	72,16
685,995	63,15
686,181	48,61
686,366	49,01
686,552	77,28
686,738	95,71
686,924	85,67
687,11	75,02
687,296	99,6
687,482	103,7
687,668	87,11
687,853	69,7
688,039	49,63
688,225	29,15
688,411	73,59
688,597	105,54
688,782	87,31
688,968	124,38
689,154	81,17
689,34	101,44
689,525	71,95
689,711	111,89
689,897	115,57
690,082	108,41
690,268	127,66
690,454	103,08
690,639	68,68
690,825	75,02
691,01	58,23
691,196	103,29
691,381	104,31
691,567	88,13
691,753	86,7
691,938	59,46
692,124	99,39
692,309	99,6
692,494	81,78
692,68	90,59
692,865	87,52
693,051	58,84
693,236	85,67
693,422	86,49
693,607	113,32
693,792	99,8
693,978	102,06
694,163	70,31
694,348	100,01
694,534	101,85
694,719	80,55
694,904	85,06
695,089	115,98
695,275	102,47
695,46	94,89
695,645	111,48
695,83	96,32
696,016	93,05
696,201	84,44
696,386	81,17
696,571	89,77
696,756	81,58
696,941	105,33
697,126	93,05
697,311	96,32
697,497	101,85
697,682	83,01
697,867	77,89
698,052	102,06
698,237	98,17
698,422	64,78
698,607	106,36
698,792	103,29
698,977	87,11
699,162	98,78
699,347	70,72
699,531	95,3
699,716	110,86
699,901	48,4
700,086	61,51
700,271	98,17
700,456	91,82
700,641	65,6
700,825	72,57
701,01	66,83
701,195	68,68
701,38	64,37
701,565	84,65
701,749	77,48
701,934	69,08
702,119	59,66
702,303	76,25
702,488	62,53
702,673	60,07
702,857	86,7
703,042	75,64
703,227	97,14
703,411	84,24
703,596	88,54
703,78	58,84
703,965	76,46
704,15	82,4
704,334	99,6
704,519	61,92
704,703	66,42
704,888	45,33
705,072	96,73
705,257	53,11
705,441	57
705,625	53,93
705,81	96,32
705,994	78,3
706,179	80,35
706,363	80,96
706,547	89,56
706,732	64,17
706,916	88,75
707,1	56,8
707,285	82,19
707,469	90,18
707,653	90,79
707,837	88,34
708,022	97,14
708,206	80,14
708,39	82,19
708,574	102,26
708,759	92,43
708,943	97,35
709,127	72,16
709,311	81,78
709,495	95,91
709,679	80,76
709,863	105,54
710,047	68,47
710,231	91,2
710,415	99,6
710,6	112,71
710,784	83,22
710,968	102,26
711,152	110,86
711,336	75,43
711,519	55,77
711,703	82,19
711,887	47,58
712,071	76,25
712,255	103,29
712,439	72,77
712,623	73,59
712,807	75,43
712,991	102,67
713,174	54,75
713,358	70,31
713,542	65,4
713,726	79,73
713,91	98,17
714,093	75,84
714,277	78,71
714,461	80,14
714,645	89,77
714,828	96,53
715,012	78,1
715,196	51,68
715,379	66,83
715,563	101,85
715,747	70,11
715,93	71,54
716,114	57,82
716,297	54,13
716,481	59,87
716,664	25,67
716,848	66,22
717,031	62,94
717,215	49,83
717,398	62,33
717,582	33,86
717,765	53,52
717,949	56,8
718,132	61,71
718,316	32,84
718,499	47,79
718,682	75,64
718,866	67,24
719,049	71,34
719,233	45,12
719,416	41,03
719,599	99,39
719,782	48,81
719,966	37,14
720,149	32,84
720,332	70,11
720,515	72,57
720,699	73,39
720,882	65,19
721,065	47,17
721,248	57,62
721,431	78,92
721,615	76,66
721,798	38,77
721,981	44,71
722,164	72,16
722,347	52,7
722,53	49,83
722,713	35,91
722,896	54,95
723,079	72,98
723,262	52,91
723,445	53,52
723,628	80,35
723,811	60,07
723,994	58,84
724,177	70,72
724,36	48,61
724,543	67,24
724,726	52,29
724,909	76,46
725,091	62,12
725,274	33,65
725,457	49,22
725,64	72,77
725,823	55,36
726,006	55,98
726,188	88,54
726,371	67,24
726,554	31,2
726,737	33,25
726,919	55,77
727,102	71,75
727,285	45,33
727,467	76,46
727,65	56,39
727,833	73,59
728,015	52,7
728,198	85,06
728,38	65,6
728,563	41,64
728,746	52,91
728,928	43,49
729,111	53,93
729,293	74,2
729,476	76,05
729,658	96,53
729,841	65,19
730,023	69,08
730,205	48,81
730,388	67,24
730,57	84,24
730,753	71,75
730,935	41,64
731,117	63,76
731,3	48,4
731,482	46,15
731,664	41,64
731,847	74,82
732,029	38,37
732,211	58,44
732,394	49,83
732,576	77,28
732,758	84,85
732,94	66,42
733,122	47,17
733,305	77,28
733,487	50,86
733,669	74,82
733,851	76,87
734,033	72,36
734,215	84,85
734,397	67,04
734,58	97,96
734,762	78,71
734,944	72,98
735,126	65,81
735,308	63,76
735,49	64,78
735,672	68,88
735,854	23,42
736,036	44,3
736,218	70,31
736,399	59,25
736,581	61,3
736,763	65,81
736,945	53,52
737,127	102,88
737,309	52,29
737,491	56,39
737,672	85,26
737,854	66,63
738,036	72,77
738,218	74,82
738,4	59,87
738,581	94,07
738,763	39,59
738,945	46,35
739,127	33,45
739,308	67,04
739,49	40,62
739,672	39,8
739,853	38,16
740,035	67,04
740,216	21,16
740,398	42,05
740,58	62,33
740,761	51,68
740,943	50,86
741,124	33,65
741,306	48,2
741,487	54,54
741,669	72,36
741,85	27,1
742,032	74,61
742,213	49,42
742,394	76,46
742,576	60,89
742,757	60,28
742,939	58,84
743,12	71,34
743,301	59,25
743,483	76,05
743,664	70,93
743,845	58,44
744,027	88,75
744,208	74,41
744,389	45,94
744,57	68,47
744,752	51,88
744,933	41,85
745,114	57,21
745,295	61,1
745,476	47,38
745,657	58,23
745,839	30,38
746,02	58,03
746,201	44,92
746,382	39,8
746,563	59,46
746,744	40,21
746,925	43,49
747,106	87,52
747,287	63,35
747,468	47,99
747,649	75,64
747,83	47,38
748,011	45,33
748,192	55,98
748,373	52,29
748,554	75,64
748,735	53,11
748,915	73,39
749,096	68,47
749,277	53,32
749,458	67,45
749,639	69,9
749,82	76,05
750	57,62
750,181	55,98
750,362	48,81
750,543	63,96
750,723	76,66
750,904	107,79
751,085	53,93
751,265	63,15
751,446	63,56
751,627	53,52
751,807	71,34
751,988	53,73
752,169	28,94
752,349	45,12
752,53	64,99
752,71	65,81
752,891	73,59
753,071	61,92
753,252	44,1
753,432	52,09
753,613	67,04
753,793	75,64
753,974	43,28
754,154	55,57
754,334	67,24
754,515	65,6
754,695	55,77
754,876	79,73
755,056	71,54
755,236	44,51
755,417	64,78
755,597	37,96
755,777	59,25
755,957	96,53
756,138	77,48
756,318	50,45
756,498	63,76
756,678	95,3
756,859	68,68
757,039	33,45
757,219	65,4
757,399	28,33
757,579	51,47
757,759	40,41
757,939	28,94
758,119	36,93
758,3	19,11
758,48	25,87
758,66	8,67
758,84	10,72
759,02	23,42
759,2	5,39
759,38	5,6
759,56	16,45
759,74	15,02
759,919	10,51
760,099	39,18
760,279	27,1
760,459	49,22
760,639	45,53
760,819	37,55
760,999	20,96
761,178	70,72
761,358	8,87
761,538	-13,86
761,718	4,78
761,898	35,91
762,077	28,94
762,257	50,04
762,437	16,86
762,616	34,47
762,796	-2,18
762,976	26,08
763,155	10,92
763,335	13,99
763,515	42,26
763,694	34,06
763,874	14,81
764,053	34,27
764,233	-5,05
764,413	54,75
764,592	67,86
764,772	35,5
764,951	67,65
765,131	44,3
765,31	66,63
765,489	47,17
765,669	47,79
765,848	59,66
766,028	60,89
766,207	48,2
766,386	56,18
766,566	60,48
766,745	49,01
766,924	71,54
767,104	70,72
767,283	79,73
767,462	24,44
767,642	65,4
767,821	63,35
768	98,78
768,179	85,47
768,358	64,17
768,538	40
768,717	61,92
768,896	68,47
769,075	60,28
769,254	34,88
769,433	49,63
769,612	66,42
769,791	45,53
769,97	57,21
770,149	27,1
770,328	55,77
770,507	55,16
770,686	66,22
770,865	47,38
771,044	70,93
771,223	68,06
771,402	58,44
771,581	63,76
771,76	57,62
771,939	59,46
772,118	49,42
772,297	76,66
772,475	78,51
772,654	83,83
772,833	45,53
773,012	65,81
773,191	22,8
773,369	56,39
773,548	24,64
773,727	45,33
773,906	64,99
774,084	58,84
774,263	71,75
774,442	53,32
774,62	64,58
774,799	40,21
774,977	58,64
775,156	49,83
775,335	64,37
775,513	55,77
775,692	44,51
775,87	17,07
776,049	28,94
776,227	38,77
776,406	36,11
776,584	35,09
776,763	43,89
776,941	52,09
777,119	41,03
777,298	44,3
777,476	56,18
777,655	47,79
777,833	47,17
778,011	28,54
778,19	80,76
778,368	13,18
778,546	44,71
778,725	57,21
778,903	45,53
779,081	49,83
779,259	37,75
779,437	53,11
779,616	50,86
779,794	44,1
779,972	49,63
780,15	42,26
780,328	19,52
780,506	42,05
780,685	86,29
780,863	38,98
781,041	65,81
781,219	44,1
781,397	42,46
781,575	8,46
781,753	30,79
781,931	74,41
782,109	28,33
782,287	25,05
782,465	43,28
782,643	56,18
782,82	63,56
782,998	35,7
783,176	54,95
783,354	43,08
783,532	53,73
783,71	60,48
783,888	55,57
784,065	45,94
784,243	40,41
784,421	18,7
784,599	30,58
784,776	44,51
784,954	11,13
785,132	34,47
785,31	49,83
785,487	40
785,665	50,45
785,842	43,08
786,02	26,28
786,198	77,28
786,375	19,11
786,553	60,69
786,73	35,7
786,908	29,56
787,085	41,64
787,263	38,37
787,44	55,98
787,618	5,6
787,795	32,22
787,973	36,52
788,15	29,56
788,328	46,15
788,505	30,17
788,682	38,57
788,86	29,76
789,037	46,15
789,215	-7,1
789,392	29,76
789,569	16,04
789,746	12,56
789,924	62,12
790,101	46,35
790,278	18,91
790,455	34,47
790,633	43,28
790,81	21,98
790,987	30,58
791,164	44,71
791,341	25,46
791,518	21,57
791,695	34,47
791,873	32,84
792,05	28,54
792,227	-2,59
792,404	16,04
792,581	-3,21
792,758	49,42
792,935	35,7
793,112	39,8
793,289	23,01
793,466	39,18
793,643	-5,26
793,82	17,68
793,996	26,9
794,173	61,92
794,35	40,41
794,527	34,68
794,704	45,74
794,881	38,98
795,057	16,45
795,234	13,58
795,411	16,04
795,588	30,79
795,765	47,79
795,941	26,69
796,118	49,01
796,295	22,8
796,471	49,83
796,648	9,69
796,825	23,42
797,001	-33,31
797,178	33,04
797,354	21,57
797,531	34,68
797,708	21,16
797,884	65,6
798,061	10,92
798,237	19,11
798,414	22,6
798,59	16,86
798,767	27,51
798,943	13,58
799,119	37,96
799,296	11,13
799,472	-13,86
799,649	15,02
799,825	45,74
800,001	32,22
800,178	26,49
800,354	17,68
800,53	52,29
800,707	33,86
800,883	47,38
801,059	43,28
801,235	21,78
801,411	29,97
801,588	21,37
801,764	5,8
801,94	18,91
802,116	27,1
802,292	11,13
802,468	34,06
802,645	46,56
802,821	49,22
802,997	37,96
803,173	50,86
803,349	25,46
803,525	29,56
803,701	25,26
803,877	33,86
804,053	36,52
804,229	26,08
804,405	14,81
804,581	40,62
804,756	-1,57
804,932	25,87
805,108	37,34
805,284	23,01
805,46	19,73
805,636	55,98
805,812	14,4
805,987	26,08
806,163	19,32
806,339	28,33
806,515	5,6
806,69	17,07
806,866	6,83
807,042	24,03
807,217	14,2
807,393	35,91
807,569	10,1
807,744	19,73
807,92	22,8
808,096	41,23
808,271	8,46
808,447	37,55
808,622	14,4
808,798	28,94
808,973	24,03
809,149	5,6
809,324	3,96
809,5	42,87
809,675	31,4
809,851	7,44
810,026	-0,96
810,201	14,4
810,377	10,72
810,552	11,33
810,728	-0,14
810,903	26,69
811,078	-12,83
811,253	14,4
811,429	30,79
811,604	30,99
811,779	35,7
811,955	-9,76
812,13	17,48
812,305	13,58
812,48	15,84
812,655	-0,34
812,83	2,32
813,006	31,2
813,181	20,96
813,356	15,63
813,531	20,55
813,706	-6,49
813,881	32,63
814,056	-6,28
814,231	34,06
814,406	-5,26
814,581	38,98
814,756	25,67
814,931	54,13
815,106	-13,04
815,281	-7,1
815,456	11,33
815,631	19,32
815,805	29,76
815,98	26,28
816,155	16,04
816,33	33,65
816,505	24,44
816,68	6,62
816,854	23,01
817,029	-16,52
817,204	2,94
817,379	17,89
817,553	21,57
817,728	7,03
817,903	3,55
818,077	19,32
818,252	37,34
818,427	13,38
818,601	-1,77
818,776	33,65
818,95	27,92
819,125	25,67
819,299	4,16
819,474	29,56
819,648	20,75
819,823	12,36
819,997	18,5
820,172	25,46
820,346	44,92
820,521	16,25
820,695	46,97
820,87	17,68
821,044	-3,62
821,218	-6,08
821,393	53,73
821,567	22,6
821,741	12,36
821,916	11,95
822,09	8,26
822,264	15,63
822,438	29,15
822,613	4,78
822,787	7,65
822,961	-7,92
823,135	-1,37
823,309	1,5
823,483	30,99
823,658	1,91
823,832	3,35
824,006	2,32
824,18	40,62
824,354	21,78
824,528	28,33
824,702	2,73
824,876	-14,47
825,05	29,76
825,224	19,73
825,398	-4,44
825,572	29,35
825,746	21,78
825,92	7,65
826,093	0,27
826,267	23,62
826,441	2,12
826,615	-2,59
826,789	12,56
826,963	4,98
827,136	35,5
827,31	21,98
827,484	23,62
827,658	8,06
827,831	17,07
828,005	20,34
828,179	-3,62
828,353	-2,8
828,526	23,01
828,7	-19,18
828,873	-22,66
829,047	6,01
829,221	18,3
829,394	-22,05
829,568	16,86
829,741	13,18
829,915	-16,52
830,088	12,97
830,262	-26,15
830,435	-27,58
830,609	-4,03
830,782	30,79
830,956	-1,77
831,129	-15,5
831,302	14,61
831,476	39,59
831,649	8,67
831,822	13,38
831,996	-8,12
832,169	-3,41
832,342	14,81
832,516	10,1
832,689	33,04
832,862	28,74
833,035	34,88
833,209	30,17
833,382	29,35
833,555	17,48
833,728	12,36
833,901	5,19
834,074	-7,3
834,247	5,6
834,42	6,83
834,594	-18,57
834,767	10,51
834,94	2,12
835,113	-6,28
835,286	-1,77
835,459	24,85
835,632	9,28
835,805	12,56
835,977	13,58
836,15	28,94
836,323	-2,18
836,496	32,84
836,669	29,76
836,842	0,89
837,015	17,07
837,188	23,82
837,36	-3,82
837,533	24,85
837,706	-21,03
837,879	18,09
838,051	-5,87
838,224	13,58
838,397	-0,96
838,569	14,4
838,742	24,64
838,915	16,66
839,087	19,52
839,26	-9,76
839,433	-0,34
839,605	20,75
839,778	20,55
839,95	7,44
840,123	-6,08
840,295	-2,59
840,468	36,32
840,64	17,48
840,813	27,92
840,985	9,28
841,158	-22,25
841,33	28,33
841,502	-0,96
841,675	-6,08
841,847	19,32
842,019	7,85
842,192	3,96
842,364	4,37
842,536	27,31
842,709	3,55
842,881	27,31
843,053	16,66
843,225	1,3
843,398	3,14
843,57	20,14
843,742	8,87
843,914	4,98
844,086	-20,41
844,258	34,47
844,43	10,92
844,602	10,92
844,775	17,07
844,947	-15,09
845,119	20,75
845,291	9,9
845,463	-21,03
845,635	20,14
845,807	15,02
845,979	-2,18
846,15	-14,27
846,322	-19,59
846,494	-12,22
846,666	26,69
846,838	-21,03
847,01	11,74
847,182	-12,83
847,354	-6,49
847,525	6,62
847,697	-14,68
847,869	4,57
848,041	17,89
848,212	8,26
848,384	-5,67
848,556	39,18
848,727	15,22
848,899	12,36
849,071	13,79
849,242	18,7
849,414	10,51
849,585	-4,03
849,757	13,99
849,929	-8,12
850,1	-7,92
850,272	1,09
850,443	-4,23
850,615	18,91
850,786	-1,77
850,958	-20,82
851,129	7,44
851,3	37,14
851,472	2,94
851,643	9,9
851,815	1,3
851,986	-8,33
852,157	-4,23
852,329	-12,22
852,5	2,12
852,671	9,08
852,842	0,27
853,014	6,83
853,185	4,57
853,356	20,96
853,527	27,51
853,698	18,7
853,87	10,51
854,041	-9,35
854,212	19,11
854,383	13,79
854,554	12,56
854,725	-0,75
854,896	-14,47
855,067	1,3
855,238	7,44
855,409	15,22
855,58	11,95
855,751	-3,41
855,922	18,91
856,093	13,99
856,264	14,4
856,435	-14,88
856,606	17,48
856,777	-9,35
856,948	-7,1
857,118	4,37
857,289	-1,98
857,46	14,2
857,631	30,17
857,802	22,19
857,972	6,83
858,143	25,26
858,314	18,3
858,484	-8,33
858,655	-4,23
858,826	2,53
858,996	19,73
859,167	29,97
859,338	6,62
859,508	27,92
859,679	4,37
859,849	-13,04
860,02	0,89
860,19	26,69
860,361	30,99
860,531	16,04
860,702	7,65
860,872	-5,26
861,043	13,58
861,213	16,86
861,384	-13,24
861,554	22,6
861,724	-18,57
861,895	16,04
862,065	-14,68
862,235	-28,4
862,406	-6,49
862,576	17,68
862,746	20,14
862,916	14,4
863,087	0,68
863,257	-21,85
863,427	-11,4
863,597	4,78
863,767	29,15
863,937	18,7
864,108	-23,89
864,278	18,3
864,448	10,1
864,618	1,09
864,788	16,04
864,958	14,81
865,128	30,38
865,298	15,63
865,468	26,9
865,638	10,31
865,808	4,16
865,978	-9,15
866,148	-12,22
866,318	12,97
866,487	-9,35
866,657	-25,74
866,827	-8,53
866,997	10,72
867,167	4,16
867,337	20,34
867,506	15,43
867,676	11,33
867,846	-4,85
868,016	6,42
868,185	-4,85
868,355	-14,88
868,525	11,33
868,694	-0,14
868,864	2,12
869,034	5,39
869,203	-1,77
869,373	18,91
869,542	-7,71
869,712	24,85
869,881	6,01
870,051	2,32
870,22	-33,31
870,39	15,43
870,559	23,21
870,729	-9,56
870,898	11,13
871,068	9,49
871,237	16,66
871,406	19,93
871,576	-2,39
871,745	-8,74
871,914	-7,1
872,084	15,84
872,253	34,88
872,422	1,09
872,591	-2,59
872,761	-20,41
872,93	1,71
873,099	7,24
873,268	22,8
873,437	-15,5
873,607	-15,7
873,776	30,79
873,945	28,13
874,114	-3,62
874,283	-15,7
874,452	-19,18
874,621	25,46
874,79	26,9
874,959	-32,9
875,128	5,19
875,297	4,37
875,466	7,24
875,635	8,67
875,804	-5,67
875,973	-5,46
876,142	21,16
876,31	15,22
876,479	-0,34
876,648	-4,85
876,817	-1,98
876,986	19,52
877,155	-3,82
877,323	-15,09
877,492	25,46
877,661	29,15
877,829	25,46
877,998	-4,85
878,167	7,24
878,335	18,09
878,504	-0,14
878,673	22,39
878,841	-20,82
879,01	10,31
879,178	-6,28
879,347	-13,24
879,515	-2,8
879,684	9,9
879,852	-22,25
880,021	-25,33
880,189	-3,21
880,358	22,39
880,526	7,85
880,695	-3,82
880,863	-4,03
881,031	6,62
881,2	-0,34
881,368	-13,86
881,536	22,19
881,705	6,01
881,873	0,68
882,041	19,93
882,21	19,93
882,378	6,01
882,546	-4,03
882,714	16,66
882,882	20,14
883,05	-5,46
883,219	-13,86
883,387	-5,46
883,555	-0,34
883,723	-32,9
883,891	21,16
884,059	21,37
884,227	17,07
884,395	-2,8
884,563	-0,55
884,731	21,16
884,899	-1,77
885,067	27,31
885,235	-8,74
885,403	8,46
885,571	-15,09
885,739	-4,03
