Data from USB4F035431__0__09-40-24-118.txt Node

Date: Mon Feb 19 09:40:24 CET 2024
User: Versuch 234
Spectrometer: USB4F03543
Trigger mode: 4
Integration Time (sec): 1,000000E-1
Scans to average: 10
Electric dark correction enabled: true
Nonlinearity correction enabled: false
Boxcar width: 0
XAxis mode: Wavelengths
Number of Pixels in Spectrum: 3648
>>>>>Begin Spectral Data<<<<<
179,969	-97,33
180,181	-97,33
180,394	-97,33
180,606	-101,84
180,819	-116,38
181,031	7,53
181,243	44,59
181,456	-33,84
181,668	25,55
181,88	18,79
182,093	-10,29
182,305	-34,25
182,518	-14,39
182,73	45
182,942	-5,79
183,155	-36,51
183,367	-6,4
183,579	10,6
183,791	45,21
184,004	22,68
184,216	20,02
184,428	15,72
184,641	15,51
184,853	2,41
185,065	12,65
185,277	43,16
185,49	57,09
185,702	9,37
185,914	5,89
186,126	35,38
186,338	39,68
186,551	17,36
186,763	31,9
186,975	4,04
187,187	33,54
187,399	29,23
187,612	33,74
187,824	9,16
188,036	21,66
188,248	25,75
188,46	46,85
188,672	23,71
188,885	33,54
189,097	61,59
189,309	-3,12
189,521	37,22
189,733	48,9
189,945	42,55
190,157	38,25
190,369	13,47
190,581	3,43
190,794	46,03
191,006	21,45
191,218	3,64
191,43	36,4
191,642	4,66
191,854	22,68
192,066	45,41
192,278	38,45
192,49	20,43
192,702	23,91
192,914	46,44
193,126	27,6
193,338	18,59
193,55	45,41
193,762	52,99
193,974	6,09
194,186	25,34
194,398	21,04
194,61	26,98
194,822	47,87
195,034	70,81
195,246	66,51
195,457	15,31
195,669	60,77
195,881	27,6
196,093	33,13
196,305	27,19
196,517	-4,56
196,729	61,59
196,941	21,04
197,153	57,7
197,365	62,62
197,576	27,6
197,788	26,78
198	37,02
198,212	88,83
198,424	67,94
198,636	6,5
198,847	15,72
199,059	33,54
199,271	18,99
199,483	57,09
199,695	10,39
199,906	60,98
200,118	19,81
200,33	58,11
200,542	234,24
200,753	33,33
200,965	22,89
201,177	38,45
201,389	44,8
201,6	1,18
201,812	44,39
202,024	14,28
202,235	8,14
202,447	71,42
202,659	45,62
202,871	34,76
203,082	29,85
203,294	1,59
203,506	40,09
203,717	32,31
203,929	52,79
204,141	9,78
204,352	73,68
204,564	29,03
204,775	31,69
204,987	78,18
205,199	37,43
205,41	50,94
205,622	55,45
205,833	9,57
206,045	31,69
206,257	26,57
206,468	23,5
206,68	0,36
206,891	9,37
207,103	23,71
207,314	2,82
207,526	22,68
207,737	21,04
207,949	43,78
208,16	43,57
208,372	43,57
208,583	28,62
208,795	32,51
209,006	6,91
209,218	39,68
209,429	-4,56
209,641	22,89
209,852	8,76
210,064	40,7
210,275	24,32
210,487	56,47
210,698	54,02
210,909	41,93
211,121	53,2
211,332	47,46
211,544	48,69
211,755	84,94
211,966	77,77
212,178	44,39
212,389	93,75
212,6	46,64
212,812	78,18
213,023	35,58
213,234	44,18
213,446	49,3
213,657	-5,99
213,868	50,12
214,08	85,96
214,291	57,29
214,502	46,44
214,714	8,76
214,925	26,78
215,136	24,11
215,347	26,16
215,559	7,12
215,77	-2,3
215,981	59,54
216,192	-13,77
216,404	20,43
216,615	50,53
216,826	34,76
217,037	50,53
217,249	47,46
217,46	79,61
217,671	43,16
217,882	29,03
218,093	34,56
218,304	47,46
218,516	45,62
218,727	-0,87
218,938	-5,99
219,149	71,83
219,36	64,46
219,571	66,3
219,782	16,95
219,993	71,63
220,205	17,15
220,416	71,83
220,627	26,98
220,838	71,83
221,049	116,48
221,26	64,26
221,471	20,43
221,682	37,02
221,893	75,52
222,104	4,45
222,315	14,28
222,526	10,6
222,737	44,18
222,948	20,63
223,159	62,82
223,37	48,28
223,581	29,23
223,792	17,97
224,003	28,83
224,214	11,21
224,425	48,28
224,636	13,47
224,847	47,87
225,058	40,5
225,269	36,81
225,48	30,26
225,691	11,21
225,902	56,47
226,112	38,86
226,323	5,68
226,534	52,58
226,745	20,63
226,956	7,32
227,167	40,5
227,378	37,43
227,589	16,74
227,799	73,68
228,01	17,15
228,221	-2,51
228,432	18,18
228,643	16,33
228,853	48,08
229,064	37,43
229,275	48,69
229,486	-0,46
229,697	18,38
229,907	47,26
230,118	15,92
230,329	31,49
230,54	3,43
230,75	44,18
230,961	52,79
231,172	32,1
231,383	-0,05
231,593	24,52
231,804	-0,26
232,015	43,57
232,225	66,3
232,436	45
232,647	47,26
232,857	67,74
233,068	23,09
233,279	66,92
233,489	37,84
233,7	26,57
233,91	21,04
234,121	11,83
234,332	39,88
234,542	58,73
234,753	19,4
234,964	68,15
235,174	12,24
235,385	70,19
235,595	37,63
235,806	66,1
236,016	29,44
236,227	24,52
236,437	16,33
236,648	34,35
236,858	62,21
237,069	16,95
237,279	45,62
237,49	28,21
237,7	37,22
237,911	29,64
238,121	18,38
238,332	26,16
238,542	69,78
238,753	17,36
238,963	31,28
239,174	61,39
239,384	28,83
239,595	38,04
239,805	29,64
240,015	48,28
240,226	14,69
240,436	61,59
240,647	50,33
240,857	13,87
241,067	39,47
241,278	125,49
241,488	32,51
241,698	79,41
241,909	20,22
242,119	63,03
242,329	36,61
242,54	46,64
242,75	30,46
242,96	-1,28
243,171	31,69
243,381	69,99
243,591	31,08
243,801	69,58
244,012	92,31
244,222	28,42
244,432	-7,83
244,642	54,02
244,853	11,83
245,063	33,33
245,273	46,03
245,483	38,86
245,694	39,68
245,904	45,21
246,114	62
246,324	27,19
246,534	46,85
246,744	30,67
246,955	1,79
247,165	82,07
247,375	73,88
247,585	45,21
247,795	43,57
248,005	51,56
248,215	74,09
248,425	57,29
248,636	126,92
248,846	6,91
249,056	41,52
249,266	16,13
249,476	31,28
249,686	46,23
249,896	43,37
250,106	36,4
250,316	38,04
250,526	82,28
250,736	13,06
250,946	96,82
251,156	81,05
251,366	51,56
251,576	59,75
251,786	59,14
251,996	27,6
252,206	39,47
252,416	47,05
252,626	10,8
252,836	3,64
253,046	42,55
253,256	80,02
253,466	33,95
253,676	43,37
253,885	55,65
254,095	28,01
254,305	53,2
254,515	46,64
254,725	37,02
254,935	26,57
255,145	56,68
255,355	58,52
255,564	47,05
255,774	32,92
255,984	68,56
256,194	49,3
256,404	37,02
256,614	69,37
256,823	91,08
257,033	26,16
257,243	48,49
257,453	31,9
257,662	48,49
257,872	69,37
258,082	40,29
258,292	5,68
258,501	122,21
258,711	114,84
258,921	98,05
259,131	-3,74
259,34	43,57
259,55	44,18
259,76	41,11
259,969	54,02
260,179	22,89
260,389	53,81
260,598	89,65
260,808	55,86
261,018	50,33
261,227	60,77
261,437	21,25
261,647	75,11
261,856	36,61
262,066	73,68
262,275	89,85
262,485	40,91
262,694	59,75
262,904	57,7
263,114	72,24
263,323	32,51
263,533	45,21
263,742	38,45
263,952	42,55
264,161	41,73
264,371	42,75
264,58	40,5
264,79	26,16
264,999	40,29
265,209	66,51
265,418	76,54
265,628	36,2
265,837	49,1
266,047	56,88
266,256	90,06
266,466	21,66
266,675	40,29
266,884	44,39
267,094	37,63
267,303	92,11
267,513	66,51
267,722	90,06
267,931	71,22
268,141	30,46
268,35	52,58
268,559	80,43
268,769	42,34
268,978	6,09
269,187	55,45
269,397	59,14
269,606	6,5
269,815	41,11
270,025	50,53
270,234	59,75
270,443	30,67
270,653	50,12
270,862	54,42
271,071	63,23
271,28	18,59
271,49	78,39
271,699	39,88
271,908	77,77
272,117	52,38
272,327	41,93
272,536	50,12
272,745	40,09
272,954	36,81
273,163	48,9
273,372	61,39
273,582	11,42
273,791	43,16
274	42,75
274,209	32,31
274,418	77,36
274,627	85,96
274,836	41,32
275,046	58,52
275,255	63,23
275,464	52,58
275,673	34,35
275,882	75,52
276,091	45,21
276,3	65,89
276,509	63,23
276,718	51,35
276,927	58,11
277,136	79
277,345	61,39
277,554	61,59
277,763	76,34
277,972	50,12
278,181	78,18
278,39	39,07
278,599	62,82
278,808	17,97
279,017	88,22
279,226	12,85
279,435	52,99
279,644	38,04
279,853	71,83
280,062	117,5
280,271	27,19
280,48	22,68
280,688	22,68
280,897	90,88
281,106	3,02
281,315	32,1
281,524	56,68
281,733	70,19
281,942	56,06
282,151	56,88
282,359	76,34
282,568	13,87
282,777	60,36
282,986	72,86
283,195	69,78
283,403	76,13
283,612	67,12
283,821	62,41
284,03	7,94
284,238	49,3
284,447	71,22
284,656	52,38
284,865	77,16
285,073	33,33
285,282	52,38
285,491	54,83
285,699	29,44
285,908	36,61
286,117	29,23
286,325	47,67
286,534	107,47
286,743	57,5
286,951	43,16
287,16	66,3
287,369	47,46
287,577	63,64
287,786	18,59
287,995	63,64
288,203	35,58
288,412	76,34
288,62	46,23
288,829	32,92
289,037	66,71
289,246	51,97
289,455	45,82
289,663	81,25
289,872	94,36
290,08	64,46
290,289	96,2
290,497	17,56
290,706	66,71
290,914	15,72
291,123	16,74
291,331	34,56
291,54	113,61
291,748	107,06
291,957	88,42
292,165	65,48
292,373	32,31
292,582	45,41
292,79	60,36
292,999	65,48
293,207	67,74
293,415	37,22
293,624	29,64
293,832	61,18
294,041	53,61
294,249	43,37
294,457	61,39
294,666	51,76
294,874	38,04
295,082	77,16
295,291	76,34
295,499	54,63
295,707	83,92
295,915	62,21
296,124	87,4
296,332	81,87
296,54	66,51
296,749	73,47
296,957	103,37
297,165	69,78
297,373	38,45
297,581	70,6
297,79	58,93
297,998	34,15
298,206	42,96
298,414	48,9
298,622	78,59
298,831	109,52
299,039	47,05
299,247	76,95
299,455	64,46
299,663	91,9
299,871	73,27
300,08	51,35
300,288	66,92
300,496	51,97
300,704	87,4
300,912	73,68
301,12	64,26
301,328	49,1
301,536	83,3
301,744	49,3
301,952	97,43
302,16	53,61
302,368	66,1
302,576	83,3
302,784	114,84
302,992	43,57
303,2	75,52
303,408	56,06
303,616	81,87
303,824	120,57
304,032	109,11
304,24	125,08
304,448	87,81
304,656	71,83
304,864	140,44
305,072	111,77
305,28	123,24
305,488	96,61
305,696	134,91
305,904	130,81
306,111	88,01
306,319	108,9
306,527	138,6
306,735	142,69
306,943	160,3
307,151	166,65
307,359	151,09
307,566	224,82
307,774	206,38
307,982	203,72
308,19	172,18
308,398	159,9
308,605	212,94
308,813	158,46
309,021	225,84
309,229	227,27
309,436	208,43
309,644	274,99
309,852	274,99
310,06	337,25
310,267	309,4
310,475	359,98
310,683	402,99
310,89	417,73
311,098	453,78
311,306	413,43
311,513	464,02
311,721	452,14
311,929	501,29
312,136	511,94
312,344	572,36
312,552	636,66
312,759	582,6
312,967	671,07
313,174	633,39
313,382	671,68
313,589	707,73
313,797	749,91
314,005	766,09
314,212	799,68
314,42	754,63
314,627	821,39
314,835	853,13
315,042	902,08
315,25	859,07
315,457	860,1
315,665	876,27
315,872	975,19
316,08	1013,28
316,287	1043,59
316,495	1307,17
316,702	1231,6
316,909	1269,69
317,117	1386,83
317,324	1400,55
317,532	1475,92
317,739	1404,04
317,946	1421,65
318,154	1444,59
318,361	1481,65
318,569	1570,95
318,776	1606,17
318,983	1693,21
319,191	1760,79
319,398	1741,95
319,605	1789,46
319,813	1881,42
320,02	1945,72
320,227	2129,43
320,434	2215,03
320,642	2252,92
320,849	2281,8
321,056	2271,97
321,264	2297,56
321,471	2310,47
321,678	2285,89
321,885	2194,76
322,092	2243,29
322,3	2183,29
322,507	2109,77
322,714	2139,46
322,921	2270,94
323,128	2315,38
323,336	2472,26
323,543	2675,62
323,75	2737,88
323,957	2799,11
324,164	2945,95
324,371	2895,37
324,578	2904,99
324,786	3014,76
324,993	3138,87
325,2	3257,24
325,407	3422,51
325,614	3531,26
325,821	3930,82
326,028	4051,85
326,235	4169,2
326,442	4196,65
326,649	4226,96
326,856	4158,14
327,063	4158,76
327,27	3992,46
327,477	4033,22
327,684	3838,66
327,891	3924,68
328,098	3913,62
328,305	4149,95
328,512	4153,43
328,719	4605,63
328,926	4657,64
329,133	4934,94
329,34	5046,55
329,546	5092,63
329,753	5067,65
329,96	5073,18
330,167	4799,16
330,374	4713,96
330,581	4647,2
330,788	4470,66
330,995	4611,16
331,201	4622,83
331,408	4598,46
331,615	4757,79
331,822	4676,69
332,029	4860,19
332,235	4852,82
332,442	4852,61
332,649	4806,94
332,856	4843,19
333,062	4687,95
333,269	4721,34
333,476	4645,36
333,683	4750,42
333,889	4794,24
334,096	4960,33
334,303	4941,08
334,509	5106,56
334,716	5143,01
334,923	5209,78
335,129	5080,34
335,336	5097,55
335,543	4842,17
335,749	4815,95
335,956	4635,53
336,163	4487,66
336,369	4425,81
336,576	4526,57
336,782	4399,19
336,989	4547,46
337,196	4578,18
337,402	4811,65
337,609	4815,95
337,815	4958,7
338,022	5068,26
338,228	5150,59
338,435	5252,99
338,641	5346,99
338,848	5336,34
339,054	5478,27
339,261	5558,96
339,467	5602,58
339,674	5735,69
339,88	5713,58
340,087	5765,8
340,293	5674,46
340,5	5609,95
340,706	5577,59
340,912	5441,2
341,119	5477,86
341,325	5470,07
341,532	5669,34
341,738	5550,56
341,944	5935,58
342,151	5883,35
342,357	5911,82
342,563	5918,99
342,77	5949,71
342,976	5736,51
343,182	5794,88
343,389	5420,31
343,595	5273,26
343,801	4953,17
344,007	4922,04
344,214	4899,92
344,42	5129,29
344,626	5322,41
344,832	5492,4
345,039	5520,25
345,245	5616,3
345,451	5679,38
345,657	5784,44
345,864	5558,55
346,07	5700,06
346,276	5727,09
346,482	5994,56
346,688	5841,78
346,894	5736,31
347,1	5751,46
347,307	5813,11
347,513	5675,08
347,719	5779,93
347,925	5682,24
348,131	5774,2
348,337	5815,57
348,543	5785,26
348,749	5522,91
348,955	5850,18
349,161	5709,48
349,367	5996,61
349,573	6308,51
349,779	6315,88
349,985	6496,52
350,191	6702,54
350,397	6612,64
350,603	6532,76
350,809	6300,32
351,015	6582,94
351,221	6198,33
351,427	6385,92
351,633	6248,1
351,839	6269,81
352,045	6115,59
352,251	6101,67
352,457	6161,47
352,663	6479,31
352,869	6330,63
353,075	6757,02
353,28	6705,82
353,486	7112,54
353,692	7096,16
353,898	7070,77
354,104	7216,38
354,31	7198,76
354,515	7298,91
354,721	7304,44
354,927	7078,75
355,133	7093,91
355,339	6880,92
355,544	6960,79
355,75	6509,62
355,956	6499,59
356,162	6203,25
356,367	5994,76
356,573	5750,44
356,779	5685,31
356,984	5620,19
357,19	5581,69
357,396	5350,47
357,602	5420,51
357,807	5106,56
358,013	5059,87
358,218	5023,62
358,424	5384,88
358,63	5635,34
358,835	6240,52
359,041	6386,74
359,247	6822,14
359,452	7055,82
359,658	7078,14
359,863	6860,03
360,069	6770,74
360,274	6571,27
360,48	6573,52
360,685	6354,8
360,891	6300,32
361,097	6241,75
361,302	6407,43
361,508	6626,36
361,713	6477,06
361,918	6894,23
362,124	7069,54
362,329	7196,72
362,535	7243,2
362,74	7128,93
362,946	7302,8
363,151	7305,67
363,357	7294,81
363,562	7406,63
363,767	7428,34
363,973	7507,39
364,178	7375,91
364,383	7478,11
364,589	7828,92
364,794	7912,07
365	8321,26
365,205	8543,26
365,41	8825,47
365,615	8942,81
365,821	9013,47
366,026	9028,21
366,231	8916,6
366,437	9064,67
366,642	9000,36
366,847	8905,75
367,052	8837,75
367,258	8720,2
367,463	8685,18
367,668	8393,55
367,873	8520,73
368,078	8459,49
368,284	8499,22
368,489	8578,48
368,694	8795,36
368,899	9055,25
369,104	9272,33
369,309	9226,87
369,515	9176,49
369,72	8989,1
369,925	8772,01
370,13	8791,26
370,335	8817,68
370,54	8814,41
370,745	8960,22
370,95	8712,83
371,155	8864,17
371,36	8434,92
371,565	8542,85
371,77	8261,05
371,975	8059,73
372,18	8036,18
372,385	7965,32
372,59	7539,75
372,795	7314,68
373	7128,93
373,205	7077,93
373,41	6986,59
373,615	7188,73
373,82	6868,43
374,025	6949,32
374,23	6817,64
374,435	7073,02
374,64	7229,07
374,845	7558,39
375,05	7796,16
375,254	8013,86
375,459	8020,2
375,664	8017,95
375,869	7929,07
376,074	8319,21
376,279	8309,58
376,483	8585,24
376,688	8687,43
376,893	9200,45
377,098	9471,39
377,303	9677,01
377,507	9879,76
377,712	10106,47
377,917	9695,65
378,122	9604,92
378,326	9169,73
378,531	8745,18
378,736	8482,64
378,94	8236,88
379,145	8246,3
379,35	8196,33
379,554	8320,64
379,759	8441,47
379,964	8490,62
380,168	8638,08
380,373	8659,99
380,578	8698,9
380,782	8471,58
380,987	8091,47
381,191	7483,84
381,396	7189,75
381,601	6961,61
381,805	6626,15
382,01	6125,42
382,214	5756,17
382,419	5581,48
382,623	5389,79
382,828	5289,44
383,032	5450,82
383,237	5414,78
383,441	5768,46
383,646	6168,64
383,85	6701,31
384,055	6893,62
384,259	7313,45
384,464	7414,41
384,668	7403,56
384,872	7200,81
385,077	7257,95
385,281	7214,33
385,486	7286,83
385,69	7311,81
385,894	7614,3
386,099	7334,95
386,303	7438,79
386,507	7542
386,712	7418,92
386,916	7450,46
387,12	7461,52
387,325	7479,95
387,529	7423,02
387,733	7244,84
387,937	7693,35
388,142	7356,46
388,346	7866,81
388,55	7962,25
388,754	8339,07
388,959	8508,64
389,163	8892,23
389,367	8937,08
389,571	9136,55
389,775	9250,21
389,98	9397,26
390,184	9364,08
390,388	9872,39
390,592	9627,45
390,796	9924,41
391	9661,24
391,204	9599,8
391,409	9217,04
391,613	8843,69
391,817	8290,54
392,021	7744,96
392,225	6927,61
392,429	6122,15
392,633	5593,57
392,837	5369,72
393,041	5263,23
393,245	5708,87
393,449	6072,79
393,653	6718,52
393,857	7279,66
394,061	8110,52
394,265	8540,8
394,469	9191,44
394,673	9200,65
394,877	9514,61
395,081	9801,32
395,285	8995,45
395,489	8355,46
395,693	7884,63
395,896	7076,09
396,1	6457,81
396,304	6433,64
396,508	6362,17
396,712	6694,35
396,916	7482,82
397,12	8430,82
397,323	9140,24
397,527	9982,57
397,731	10733,56
397,935	10889,61
398,139	11609,47
398,342	12064,94
398,546	12132,53
398,75	12342,85
398,954	12700,02
399,157	12367,84
399,361	12613,39
399,565	12708
399,769	12845,63
399,972	12957,04
400,176	13183,54
400,38	13083,81
400,583	13436,26
400,787	13850,16
400,991	13500,77
401,194	13659,7
401,398	14039,8
401,601	13754,52
401,805	13645,36
402,009	13965,46
402,212	13547,06
402,416	13720,93
402,619	13849,75
402,823	13442,41
403,026	13574,7
403,23	13259,73
403,433	13626,72
403,637	13109,41
403,841	13332,02
404,044	13660,11
404,247	13903,81
404,451	13595,18
404,654	13370,52
404,858	13641,88
405,061	13364,79
405,265	13260,14
405,468	13650,48
405,672	13034,25
405,875	12735,04
406,078	13316,25
406,282	13227,37
406,485	12922,63
406,689	13739,36
406,892	13662,36
407,095	13205,46
407,299	13345,13
407,502	13783,8
407,705	14140,56
407,909	14376,89
408,112	14757,82
408,315	15008,08
408,518	14668,12
408,722	13951,33
408,925	13951,74
409,128	13813,7
409,331	13687,75
409,535	13626,52
409,738	13616,69
409,941	13778,89
410,144	13811,86
410,347	14452,46
410,551	14375,67
410,754	14795,7
410,957	14980,84
411,16	15113,55
411,363	15052,72
411,566	15375,69
411,769	15408,66
411,973	15352,75
412,176	14989,85
412,379	15551,81
412,582	15205,09
412,785	15014,02
412,988	15555,09
413,191	14992,92
413,394	14917,35
413,597	15199,56
413,8	15322,03
414,003	15514,54
414,206	15104,13
414,409	15616,12
414,612	14862,26
414,815	15177,85
415,018	15203,04
415,221	15442,86
415,424	15555,3
415,627	15659,33
415,83	15486,89
416,033	15400,26
416,235	15729,17
416,438	15654,62
416,641	14879,26
416,844	15033,47
417,047	15025,69
417,25	14657,88
417,453	14976,33
417,655	14635,35
417,858	15064,19
418,061	14659,51
418,264	14493,83
418,467	14881,31
418,669	14664,84
418,872	14916,12
419,075	14747,37
419,278	14592,95
419,48	14841,78
419,683	15107,2
419,886	14953,4
420,089	16143,06
420,291	15346,61
420,494	15849,59
420,697	15415,21
420,899	15737,36
421,102	14774
421,305	15186,05
421,507	14630,43
421,71	14932,71
421,912	14795,09
422,115	14837,07
422,318	14137,9
422,52	14564,9
422,723	14915,1
422,925	15075,46
423,128	14695,56
423,33	14766,21
423,533	14489,94
423,735	14994,56
423,938	15016,07
424,14	14943,16
424,343	14544,62
424,545	15200,59
424,748	14524,96
424,95	14515,95
425,153	15319,37
425,355	14993,74
425,558	15367,5
425,76	14682,04
425,962	14403,31
426,165	14080,55
426,367	15056,82
426,57	14914,9
426,772	14354,37
426,974	14607,7
427,177	14210,8
427,379	14478,06
427,581	14517,59
427,784	14878,24
427,986	13506,1
428,188	14267,12
428,39	14397,78
428,593	13525,76
428,795	13897,26
428,997	13238,22
429,2	12376,03
429,402	12276,7
429,604	11944,32
429,806	11374,98
430,008	11657,4
430,211	12009,85
430,413	12556,25
430,615	13165,73
430,817	14438,33
431,019	14921,04
431,221	15125,63
431,423	14838,1
431,626	15132,19
431,828	15151,23
432,03	15405,18
432,232	15466,82
432,434	16181,56
432,636	16405
432,838	15400,06
433,04	15101,88
433,242	15514,34
433,444	14817,82
433,646	15121,74
433,848	15785,28
434,05	16047,83
434,252	15778,52
434,454	15860,44
434,656	16408,27
434,858	16751,31
435,06	17042,12
435,262	17003,62
435,464	17880,56
435,666	17779,59
435,868	17161,11
436,07	17868,27
436,271	18277,05
436,473	17427,14
436,675	17427,14
436,877	16889,96
437,079	16134,87
437,281	16437,77
437,482	16532,18
437,684	16653,01
437,886	15954,03
438,088	15912,87
438,29	16041,07
438,491	16541,19
438,693	16395,37
438,895	16931,12
439,097	18011,01
439,298	16746,8
439,5	16907,57
439,702	16912,07
439,903	16610,61
440,105	17568,04
440,307	18137,99
440,508	18180,38
440,71	18707,32
440,912	18210,08
441,113	18072,66
441,315	18528,13
441,517	18822,83
441,718	19109,55
441,92	18832,25
442,121	18296,91
442,323	18802,15
442,524	18777,57
442,726	18931,58
442,928	18648,55
443,129	19199,45
443,331	18027,4
443,532	18760,37
443,734	18827,95
443,935	19240,62
444,136	17859,47
444,338	18760,16
444,539	18457,27
444,741	18099,28
444,942	17528,1
445,144	17848,2
445,345	18350,98
445,546	18371,66
445,748	17885,47
445,949	17802,12
446,151	18365,31
446,352	18885,29
446,553	18791,29
446,755	18405,45
446,956	19509,92
447,157	19371,89
447,359	18965,16
447,56	19106,06
447,761	19252,9
447,962	19525,9
448,164	19788,24
448,365	18498,64
448,566	19327,86
448,767	19057,94
448,969	19897,4
449,17	19588,57
449,371	19271,13
449,572	19995,09
449,773	20254,56
449,974	20230,19
450,176	20476,56
450,377	20954,77
450,578	20512,4
450,779	19502,96
450,98	18836,76
451,181	19278,91
451,382	19070,84
451,583	19217,68
451,784	18672,3
451,986	19872,82
452,187	18376,17
452,388	18390,71
452,589	17792,7
452,79	19309,02
452,991	18261,89
453,192	19348,95
453,393	19149,28
453,594	20066,97
453,795	18660,22
453,995	18686,64
454,196	18620,29
454,397	19279,53
454,598	18965,37
454,799	19556,41
455	19855,01
455,201	19639,97
455,402	19774,32
455,603	19440,91
455,804	20736,25
456,004	21180,45
456,205	19962,93
456,406	19802,17
456,607	19917,67
456,808	20180,84
457,008	19423,7
457,209	19287,72
457,41	21088,91
457,611	19617,85
457,811	19959,66
458,012	20320,3
458,213	20497,66
458,414	19782,92
458,614	20014,54
458,815	20008,6
459,016	20054,89
459,216	20717,2
459,417	20704,09
459,618	20700,41
459,818	20906,02
460,019	20499,5
460,22	20917,08
460,42	21228,99
460,621	20420,86
460,821	21227,55
461,022	21032,59
461,223	20492,95
461,423	21357,6
461,624	21370,5
461,824	21999,43
462,025	20965,21
462,225	21840,31
462,426	22419,68
462,626	21854,85
462,827	21376,44
463,027	21117,37
463,228	21571
463,428	20723,55
463,628	21435,63
463,829	21913,42
464,029	21027,67
464,23	21777,64
464,43	21401,84
464,63	21584,72
464,831	22062,72
465,031	22134,19
465,231	22429,92
465,432	22306,83
465,632	21954,58
465,832	20859,33
466,033	22333,87
466,233	21930,42
466,433	21557,07
466,634	22414,35
466,834	23134,01
467,034	22349,43
467,234	23523,33
467,435	22898,49
467,635	23647,23
467,835	22034,04
468,035	23522,1
468,235	23092,64
468,436	23090,18
468,636	23136,06
468,836	22974,88
469,036	23982,07
469,236	22989,83
469,436	22701,48
469,636	23418,27
469,836	23204,25
470,037	23600,74
470,237	23627,16
470,437	24252,81
470,637	23599,1
470,837	24613,05
471,037	24928,44
471,237	25701,75
471,437	25392,1
471,637	25755,41
471,837	26081,45
472,037	25425,28
472,237	25336,8
472,437	25976,59
472,637	26650,78
472,837	26216,41
473,036	25982,94
473,236	26792,3
473,436	26247,54
473,636	27097,24
473,836	26465,23
474,036	27636,47
474,236	27844,54
474,436	27988,72
474,635	27409,96
474,835	27440,68
475,035	28611,51
475,235	28940,41
475,435	28484,94
475,634	28080,06
475,834	29502,17
476,034	29436,43
476,234	29577,94
476,433	29934,49
476,633	30006,99
476,833	30755,11
477,033	30716,82
477,232	31412,51
477,432	30280,4
477,632	31346,36
477,831	31070,91
478,031	31210,79
478,231	32284,13
478,43	31962,39
478,63	32533,78
478,829	32589,48
479,029	33109,46
479,229	33559,81
479,428	33633,94
479,628	34000,94
479,827	34081,22
480,027	34168,46
480,226	34373,88
480,426	35420,18
480,625	34749,06
480,825	36194,72
481,024	35947,74
481,224	36483,28
481,423	36023,51
481,623	36275,21
481,822	36450,52
482,021	36916,63
482,221	37158,09
482,42	36887,76
482,62	37147,23
482,819	36873,01
483,018	37124,91
483,218	36977,87
483,417	37593,9
483,616	37456,07
483,816	36978,69
484,015	37393,61
484,214	36828,37
484,414	36137,18
484,613	34666,53
484,812	34298,31
485,011	34056,24
485,211	33344,77
485,41	33602,61
485,609	34001,15
485,808	34141,02
486,008	35320,86
486,207	35123,43
486,406	35805,61
486,605	35933,2
486,804	36754,84
487,003	37207,04
487,203	37834,33
487,402	37428,63
487,601	37662,5
487,8	37611,71
487,999	38055,1
488,198	38629,35
488,397	39220,8
488,596	39554,21
488,795	39939,23
488,994	40579,02
489,193	40602,57
489,392	40797,94
489,591	40887,64
489,79	40747,56
489,989	41017,28
490,188	40369,71
490,387	40134,61
490,586	39582,47
490,785	40066,2
490,984	39406,14
491,183	39718,46
491,382	39345,73
491,581	40184,58
491,779	40390,4
491,978	40766,41
492,177	40675,07
492,376	40845,46
492,575	40918,77
492,774	40763,95
492,972	41015,44
493,171	41292,94
493,37	41526,61
493,569	42137,32
493,768	42082,43
493,966	42064,82
494,165	41914,7
494,364	42161,89
494,563	41435,07
494,761	42128,71
494,96	41729,97
495,159	42322,25
495,357	41480,74
495,556	42090,42
495,755	41588,26
495,953	42306,07
496,152	42008,29
496,35	42145,71
496,549	41601,36
496,748	41444,9
496,946	40764,56
497,145	40483,17
497,343	40387,12
497,542	40523,31
497,74	40485,63
497,939	41223,72
498,137	41197,3
498,336	41028,75
498,534	40251,34
498,733	40397,36
498,931	40348,82
499,13	39904,01
499,328	39240,05
499,527	39691,22
499,725	38865,48
499,924	39034,03
500,122	38346,32
500,32	38761,65
500,519	38443,39
500,717	38116,54
500,915	38399,77
501,114	38770,66
501,312	38740,35
501,51	39004,95
501,709	38769,23
501,907	39088,09
502,105	38775,37
502,304	38906,24
502,502	38086,84
502,7	38108,76
502,898	37852,76
503,097	37986,7
503,295	38122,07
503,493	38514,87
503,691	38679,93
503,889	38732,36
504,088	38805,07
504,286	39258,28
504,484	39298,83
504,682	39880,04
504,88	39551,14
505,078	39926,33
505,276	39762,49
505,474	39926,33
505,672	39057,78
505,871	39235,96
506,069	39259,71
506,267	39164,89
506,465	38803,84
506,663	38843,16
506,861	38464,69
507,059	38618,09
507,257	38711,68
507,455	39306,2
507,653	39405,33
507,851	39637,77
508,049	39140,11
508,246	39773,96
508,444	39171,45
508,642	39616,47
508,84	38985,08
509,038	39197,46
509,236	39155,47
509,434	39109,8
509,632	39431,13
509,829	39826,59
510,027	39535,58
510,225	39953,36
510,423	40220,42
510,621	40087,71
510,818	40234,96
511,016	40143,41
511,214	39712,73
511,412	39926,53
511,609	39457,96
511,807	39674,43
512,005	39182,51
512,203	39447,72
512,4	39364,37
512,598	39339,38
512,796	39103,04
512,993	39185,78
513,191	39077,65
513,389	38943,1
513,586	39490,52
513,784	39470,66
513,981	39512,02
514,179	39869,6
514,377	39792,6
514,574	39847,28
514,772	39476,39
514,969	39489,09
515,167	38385,44
515,364	37796,03
515,562	36944,28
515,759	36429,22
515,957	35684,78
516,154	36609,03
516,352	36745,42
516,549	36895,13
516,746	36804,61
516,944	37079,45
517,141	37165,46
517,339	36895,74
517,536	37096,24
517,733	37174,06
517,931	38175,72
518,128	38591,05
518,325	38689,97
518,523	39514,28
518,72	39275,89
518,917	40214,89
519,115	40099,38
519,312	40199,73
519,509	40375,24
519,707	40561,81
519,904	40576,56
520,101	41070,53
520,298	41204,67
520,495	41591,94
520,693	41229,86
520,89	41526
521,087	41130,74
521,284	41781,79
521,481	40998,64
521,678	41135,24
521,876	40847,71
522,073	41231,09
522,27	41334,51
522,467	41674,06
522,664	41936,2
522,861	42582,95
523,058	42404,58
523,255	42537,28
523,452	42786,73
523,649	42569,85
523,846	42395,97
524,043	42689,45
524,24	42591,55
524,437	42274,53
524,634	42103,93
524,831	41871,28
525,028	41018,92
525,225	40528,84
525,422	39658,04
525,619	39578,17
525,816	38924,87
526,013	39819,01
526,209	39476,39
526,406	39991,25
526,603	39976,09
526,8	40618,34
526,997	40652,33
527,194	41548,52
527,39	41390,42
527,587	41709,29
527,784	42030,41
527,981	42105,16
528,177	42024,68
528,374	42210,02
528,571	41611,19
528,768	42160,66
528,964	42142,64
529,161	42239,3
529,358	42698,87
529,554	42601,79
529,751	42665,69
529,948	42868,03
530,144	42514,76
530,341	42785,5
530,537	42535,24
530,734	42548,55
530,931	41673,66
531,127	41480,94
531,324	41125,41
531,52	40650,29
531,717	40675,07
531,913	40609,74
532,11	40772,55
532,306	40959,94
532,503	41039,4
532,699	40930,45
532,896	41140,16
533,092	40949,7
533,289	41072,58
533,485	41586,21
533,682	41330,01
533,878	41765,81
534,074	41349,46
534,271	42069,53
534,467	41907,33
534,664	42090,21
534,86	41821,52
535,056	41796,33
535,253	41280,45
535,449	41301,54
535,645	40715,62
535,841	40964,65
536,038	40589,05
536,234	40768,86
536,43	41066,64
536,626	41298,88
536,823	40786,68
537,019	41213,48
537,215	40914,27
537,411	41044,52
537,607	40500,37
537,804	40691,86
538	40141,77
538,196	40090,99
538,392	39916,29
538,588	39731,77
538,784	39561,99
538,98	39143,8
539,176	38808,75
539,373	39200,94
539,569	38590,03
539,765	38739,74
539,961	39154,45
540,157	39024,81
540,353	38858,72
540,549	39564,66
540,745	39181,48
540,941	39199,3
541,137	38896
541,333	38885,35
541,528	39014,98
541,724	38989,59
541,92	38853,4
542,116	38864,66
542,312	38879
542,508	39274,87
542,704	39311,12
542,9	39330,37
543,096	39180,25
543,291	39280,6
543,487	39140,11
543,683	39272,62
543,879	39168,38
544,075	38806,09
544,27	39204,62
544,466	39057,99
544,662	38802,4
544,858	39252,75
545,053	38821,65
545,249	39088,09
545,445	38802,2
545,64	38918,32
545,836	38467,56
546,032	38351,85
546,227	38255,19
546,423	37944,51
546,619	37919,11
546,814	38193,13
547,01	37882,46
547,205	38373,35
547,401	37764,49
547,597	38551,12
547,792	37986,9
547,988	38417,18
548,183	37884,5
548,379	38390,97
548,574	38052,03
548,77	38219,55
548,965	37803,4
549,161	37983,01
549,356	37439,48
549,552	38047,73
549,747	37568,3
549,942	37585,3
550,138	37703,26
550,333	37465,9
550,529	37740,74
550,724	38000,21
550,919	37496,62
551,115	37673,97
551,31	37190,86
551,505	37355,1
551,701	37055,28
551,896	36903,32
552,091	37076,58
552,287	37206,01
552,482	37158,7
552,677	36903,94
552,872	36829,39
553,067	36856,01
553,263	37204,99
553,458	37195,36
553,653	36926,67
553,848	37283,42
554,043	36772,25
554,239	37010,84
554,434	36652,04
554,629	36810,96
554,824	36376,58
555,019	36139,63
555,214	36108,3
555,409	35885,69
555,604	35641,16
555,799	35622,32
555,994	35412,4
556,189	35361,41
556,384	35315,12
556,579	35512,14
556,774	35237,09
556,969	35087,39
557,164	34742,92
557,359	34554,71
557,554	34070,98
557,749	34180,14
557,944	33971,45
558,139	33798,81
558,334	33796,96
558,529	34038,83
558,724	33869,05
558,918	33969,4
559,113	33957,52
559,308	34378,79
559,503	34139,79
559,698	34312,44
559,893	33996,64
560,087	33983,12
560,282	33730,4
560,477	33714,22
560,672	33525,4
560,866	33511,48
561,061	33384,09
561,256	33892,6
561,45	33498,78
561,645	33848,78
561,84	33707,88
562,034	33588,68
562,229	33346,2
562,424	33594,83
562,618	33300,74
562,813	33193,22
563,008	33040,65
563,202	33159,43
563,397	33034,5
563,591	33061,74
563,786	32945,01
563,98	33019,55
564,175	32471,11
564,369	32320,58
564,564	32238,05
564,758	32272,25
564,953	31953,18
565,147	32173,13
565,342	31943,35
565,536	32303,79
565,731	32236,41
565,925	32448,38
566,119	32272,86
566,314	32345,36
566,508	31944,57
566,703	32060,49
566,897	31622,02
567,091	31546,65
567,286	31398,59
567,48	31082,18
567,674	31147,1
567,868	31449,58
568,063	31000,46
568,257	31199,11
568,451	30990,84
568,646	30765,15
568,84	30525,54
569,034	30430,72
569,228	30187,01
569,422	30186,39
569,616	29801,17
569,811	29742,8
570,005	29696,52
570,199	30091,37
570,393	30124,75
570,587	30275,48
570,781	30167,96
570,975	30406,96
571,169	30423,75
571,364	30508,54
571,558	30397,33
571,752	30631,62
571,946	30300,88
572,14	30546,22
572,334	30287,56
572,528	30504,85
572,722	30102,63
572,916	30199,09
573,109	29882,07
573,303	30030,75
573,497	29721,91
573,691	29845,41
573,885	29448,51
574,079	29851,76
574,273	29345,29
574,467	29445,44
574,661	29295,73
574,854	29460,59
575,048	29433,97
575,242	29402,84
575,436	29454,86
575,63	29626,68
575,823	29277,1
576,017	29543,74
576,211	29032,16
576,405	29389,12
576,598	28855,21
576,792	29042,81
576,986	28609,25
577,18	28576,49
577,373	28693,22
577,567	28883,07
577,761	28856,03
577,954	28977,27
578,148	29030,11
578,341	29348,57
578,535	29195,79
578,729	29458,55
578,922	29171,63
579,116	29487,01
579,309	29043,63
579,503	29584,5
579,696	29341,4
579,89	29614,4
580,083	29480,66
580,277	29654,33
580,47	29652,08
580,664	29796,05
580,857	29824,52
581,051	29728,67
581,244	29799,94
581,437	30057,78
581,631	29908,69
581,824	30108,98
582,018	29988,15
582,211	30204,21
582,404	30022,97
582,598	30159,16
582,791	30158,13
582,984	29957,23
583,178	30198,48
583,371	30274,05
583,564	29936,34
583,757	30002,49
583,951	29753,45
584,144	29594,53
584,337	29448,92
584,53	29457,93
584,723	29065,54
584,917	29515,48
585,11	29334,44
585,303	29690,58
585,496	29045,68
585,689	29516,09
585,882	29274,43
586,075	29417,18
586,268	29196
586,462	29033,18
586,655	28869,55
586,848	28696,91
587,041	28150,71
587,234	27801,53
587,427	27005,9
587,62	26676,38
587,813	26185,89
588,006	25983,14
588,199	25614,3
588,392	25918,43
588,585	25909,83
588,777	26308,97
588,97	26206,78
589,163	26812,16
589,356	26787,58
589,549	26783,08
589,742	26724,1
589,935	26853,12
590,128	26749,08
590,32	26851,28
590,513	26477,52
590,706	26938,93
590,899	26607,16
591,092	26836,33
591,284	26772,63
591,477	27126,93
591,67	26953,27
591,863	27166,87
592,055	27098,47
592,248	27094,78
592,441	26990,13
592,633	27180,59
592,826	26714,47
593,019	26712,63
593,211	26351,98
593,404	26411,17
593,596	26484,28
593,789	26414,65
593,982	26415,26
594,174	26456,43
594,367	26604,91
594,559	26844,72
594,752	26641,77
594,944	26690,1
595,137	26766,49
595,329	26770,59
595,522	26852,3
595,714	26859,06
595,907	26744,58
596,099	26519,1
596,292	26632,96
596,484	26623,34
596,676	26410,14
596,869	26286,04
597,061	26558,21
597,253	26474,25
597,446	26220,91
597,638	26676,38
597,83	26328,02
598,023	26534,87
598,215	26487,76
598,407	26411,58
598,6	26400,93
598,792	26400,72
598,984	26113,39
599,176	26023,08
599,369	26191,83
599,561	26378,61
599,753	25870,71
599,945	26083,49
600,137	25875,42
600,329	25959,8
600,522	25571,09
600,714	25735,34
600,906	25646,25
601,098	25896,72
601,29	25711,38
601,482	25790,22
601,674	25899,38
601,866	26072,02
602,058	25951,19
602,25	25999,53
602,442	25995,64
602,634	26230,33
602,826	25847,77
603,018	25972,29
603,21	26101,92
603,402	26074,07
603,594	25877,67
603,786	25979,66
603,978	25776,5
604,17	25902,86
604,362	25889,14
604,554	25689,87
604,745	25674,1
604,937	25774,66
605,129	25673,49
605,321	25462,34
605,513	25700,52
605,704	25648,91
605,896	25273,32
606,088	25482
606,28	25259,8
606,471	25400,91
606,663	25163,96
606,855	25221,5
607,047	25185,87
607,238	25099,65
607,43	24695,58
607,622	25038,41
607,813	24801,06
608,005	24842,42
608,197	24726,51
608,388	24884
608,58	24418,09
608,771	24621,45
608,963	24242,98
609,154	24309,54
609,346	24135,87
609,537	24283,74
609,729	24381,43
609,921	24393,71
610,112	24097,58
610,303	24131,16
610,495	23894,62
610,686	24020,57
610,878	23857,56
611,069	23738,36
611,261	23671,19
611,452	23679,79
611,643	23389,6
611,835	23603,81
612,026	23232,52
612,217	23211,42
612,409	23149,57
612,6	23111,69
612,791	22933,31
612,983	23030,38
613,174	23103,7
613,365	23171,08
613,557	22914,06
613,748	23059,05
613,939	22865,52
614,13	22883,54
614,321	22491,15
614,513	22687,76
614,704	22262,8
614,895	22376,67
615,086	22054,11
615,277	22169,21
615,468	22009,47
615,659	22349,64
615,851	22191,12
616,042	22251,13
616,233	22241,91
616,424	22590,48
616,615	22470,88
616,806	22574,91
616,997	22295,37
617,188	22473,54
617,379	22693,7
617,57	22495,25
617,761	22464,12
617,952	22656,01
618,143	22519,41
618,334	22684,07
618,524	22789,13
618,715	22866,75
618,906	22881,08
619,097	22811,45
619,288	22923,48
619,479	23049,84
619,67	22793,64
619,86	22909,55
620,051	22776,84
620,242	22887,64
620,433	22740,59
620,624	22949,28
620,814	22943,55
621,005	22910,98
621,196	22798,14
621,386	22976,93
621,577	22992,08
621,768	22895,22
621,958	22784,83
622,149	22917,54
622,34	22928,8
622,53	22857,33
622,721	22731,99
622,912	22993,72
623,102	22949,69
623,293	22993,93
623,483	22910,58
623,674	22740,59
623,864	22913,24
624,055	22878,63
624,245	22768,86
624,436	22838,28
624,626	22928,19
624,817	22996,59
625,007	22970,58
625,198	23258,93
625,388	23105,75
625,579	23116,81
625,769	23076,67
625,959	22971,81
626,15	22477,63
626,34	22344,93
626,531	22302,12
626,721	22327,11
626,911	22109,41
627,101	22361,51
627,292	22208,74
627,482	22426,64
627,672	22460,84
627,863	22506,72
628,053	22519,82
628,243	22404,52
628,433	22442,2
628,623	22371,96
628,814	22269,15
629,004	22430,94
629,194	22500,57
629,384	22436,68
629,574	22506,72
629,764	22594,57
629,955	22361,72
630,145	22442,41
630,335	22398,58
630,525	22535,59
630,715	22321,58
630,905	22658,27
631,095	22515,52
631,285	22914,26
631,475	22660,93
631,665	22988,19
631,855	22664
632,045	22743,46
632,235	22685,71
632,425	22683,25
632,615	22571,02
632,805	22770,29
632,994	22524,94
633,184	22930,24
633,374	22827,84
633,564	22821,28
633,754	22894,19
633,944	22921,84
634,133	22633,49
634,323	22914,88
634,513	22669,32
634,703	22898,08
634,893	22586,59
635,082	22783,81
635,272	22640,24
635,462	22930,44
635,651	22985,33
635,841	22866,34
636,031	22859,99
636,221	22754,93
636,41	22795,89
636,6	22705,16
636,789	22858,76
636,979	22846,68
637,169	22860,81
637,358	22848,11
637,548	22807,97
637,737	22800,6
637,927	22720,11
638,116	22609,11
638,306	22525,76
638,495	22624,27
638,685	22334,28
638,874	22458,18
639,064	22221,64
639,253	22488,28
639,443	22241,91
639,632	22298,44
639,822	22033,02
640,011	22193,17
640,2	22025,85
640,39	22140,95
640,579	22020,53
640,768	21947,42
640,958	21918,95
641,147	22201,57
641,336	21903,79
641,526	22007,42
641,715	21830,27
641,904	22123,54
642,093	21702,27
642,283	21952,95
642,472	21737,09
642,661	21785,83
642,85	21785,42
643,039	21810,82
643,228	21577,55
643,418	21662,75
643,607	21598,44
643,796	21569,77
643,985	21332,62
644,174	21326,27
644,363	21278,96
644,552	21240,05
644,741	20850,32
644,93	20993,06
645,119	20645,93
645,308	20982,21
645,497	20755,29
645,686	20493,97
645,875	20500,32
646,064	20453,42
646,253	20156,47
646,442	20576,91
646,631	20375,39
646,82	20261,73
647,009	20115,51
647,198	20188,42
647,387	20187,8
647,575	19962,11
647,764	20253,13
647,953	19671,51
648,142	19615,6
648,331	19668,85
648,519	19567,27
648,708	20023,55
648,897	19763,26
649,086	20355,94
649,274	20046,9
649,463	20169,37
649,652	19966,42
649,84	19967,85
650,029	19767,97
650,218	19750,15
650,406	19670,69
650,595	19692,6
650,784	19752,2
650,972	19922,18
651,161	19722,09
651,349	19943,68
651,538	19920,54
651,726	19976,25
651,915	19836,37
652,104	20019,25
652,292	19923,61
652,481	19914,4
652,669	19785,17
652,857	19957,81
653,046	19702,84
653,234	19701,61
653,423	19326,22
653,611	19426,16
653,8	19001,41
653,988	18926,46
654,176	18357,53
654,365	18120,79
654,553	17702,59
654,741	17387,82
654,93	17017,95
655,118	16918,22
655,306	17135,92
655,494	17448,64
655,683	17464
655,871	17725,12
656,059	17942
656,247	18229,12
656,436	18283,6
656,624	18482,25
656,812	18505,19
657	18501,3
657,188	18600,62
657,376	18790,68
657,564	18675,17
657,753	18817,91
657,941	18588,34
658,129	18896,76
658,317	18731,49
658,505	18841,26
658,693	18922,77
658,881	19092,96
659,069	18798,66
659,257	18957,38
659,445	19105,04
659,633	19105,65
659,821	19212,76
660,009	19200,07
660,197	19234,47
660,384	19347,72
660,572	19321,31
660,76	19338,92
660,948	19169,55
661,136	19098,49
661,324	19064,49
661,512	19293,25
661,699	18974,38
661,887	19090,7
662,075	18960,25
662,263	18881,4
662,451	18776,14
662,638	18835,32
662,826	18746,44
663,014	18843,51
663,201	18757,5
663,389	18864,61
663,577	18807,06
663,764	18985,85
663,952	18715,11
664,14	18792,72
664,327	18770,81
664,515	18714,49
664,702	18581,37
664,89	18726,98
665,078	18448,46
665,265	18584,65
665,453	18463,62
665,64	18481,64
665,828	18415,08
666,015	18379,65
666,203	18328,86
666,39	18488,19
666,578	18314,93
666,765	18361,83
666,952	18350,16
667,14	18514
667,327	18268,44
667,515	18230,15
667,702	18135,12
667,889	18378,63
668,077	18245,71
668,264	18140,86
668,451	18028,42
668,638	18133,89
668,826	17934,42
669,013	18131,03
669,2	18013,88
669,388	18035,8
669,575	17746,21
669,762	17890,39
669,949	17593,23
670,136	18226,67
670,323	17515,2
670,511	17741,3
670,698	17611,05
670,885	17533,63
671,072	17449,87
671,259	17617,4
671,446	17447
671,633	17572,95
671,82	17470,97
672,007	17570,29
672,194	17343,79
672,381	17480,8
672,568	17448,23
672,755	17334,98
672,942	17299,14
673,129	17302,01
673,316	17360,17
673,503	17215,58
673,69	17216,4
673,877	17326,79
674,064	17239,54
674,251	17138,58
674,437	17038,23
674,624	17143,5
674,811	17088,4
674,998	17116,26
675,185	16974,13
675,372	17037,82
675,558	16921,9
675,745	16824,01
675,932	16906,55
676,119	16931,33
676,305	16751,92
676,492	16886,48
676,679	16798,62
676,865	16800,05
677,052	16583,99
677,239	16800,67
677,425	16582,97
677,612	16776,09
677,798	16573,96
677,985	16653,21
678,172	16470,74
678,358	16596,28
678,545	16455,58
678,731	16371,41
678,918	16338,44
679,104	16369,16
679,291	16455,17
679,477	16331,48
679,664	16122,79
679,85	16288,67
680,036	16174,4
680,223	16180,54
680,409	16290,31
680,596	16072,61
680,782	16074,66
680,968	16113,98
681,155	16054,18
681,341	16065,24
681,527	15896,69
681,714	15976,97
681,9	15912,67
682,086	15865,97
682,272	15772,38
682,459	15679,2
682,645	15677,76
682,831	15668,75
683,017	15529,9
683,204	15540,35
683,39	15481,57
683,576	15614,28
683,762	15360,53
683,948	15460,06
684,134	15341,08
684,32	15173,14
684,506	14976,95
684,693	14825,4
684,879	14155,3
685,065	13665,84
685,251	12750,81
685,437	12250,49
685,623	11472,46
685,809	11115,3
685,995	10867,49
686,181	10985,25
686,366	11068,81
686,552	11252,92
686,738	11338,32
686,924	11475,13
687,11	11397,92
687,296	11395,87
687,482	11320,3
687,668	11114,28
687,853	11150,32
688,039	11214,01
688,225	11190,25
688,411	11217,49
688,597	11260,5
688,782	11431,71
688,968	11508,3
689,154	11620,74
689,34	11764,91
689,525	11956,6
689,711	12064,94
689,897	12182,91
690,082	12197,65
690,268	12388,93
690,454	12357,19
690,639	12541,3
690,825	12543,76
691,01	12574,89
691,196	12435,62
691,381	12619,12
691,567	12462,45
691,753	12526,14
691,938	12403,06
692,124	12372,75
692,309	12384,84
692,494	12363,33
692,68	12345,51
692,865	12313,36
693,051	12270,76
693,236	12355,14
693,422	12380,12
693,607	12432,55
693,792	12358,01
693,978	12354,73
694,163	12509,15
694,348	12397,33
694,534	12515,91
694,719	12653,12
694,904	12697,56
695,089	12776,61
695,275	12825,97
695,46	12886,38
695,645	12982,43
695,83	12999,64
696,016	12930,82
696,201	12968,51
696,386	12854,23
696,571	12976,7
696,756	12728,28
696,941	12812,86
697,126	12526,76
697,311	12741,18
697,497	12516,11
697,682	12451,19
697,867	12359,65
698,052	12475,56
698,237	12245,37
698,422	12317,87
698,607	12243,53
698,792	12158,74
698,977	11980,77
699,162	12123,31
699,347	12144,2
699,531	12064,74
699,716	12001,86
699,901	11878,78
700,086	12000,02
700,271	11923,84
700,456	11819,6
700,641	11899,26
700,825	11835,98
701,01	11849,29
701,195	11833,73
701,38	11855,44
701,565	11943,29
701,749	11956,81
701,934	11936,74
702,119	12078,87
702,303	11991,63
702,488	11920,36
702,673	11948,62
702,857	12074,57
703,042	12068,83
703,227	12262,57
703,411	12034,63
703,596	12091,77
703,78	11936,74
703,965	12031,36
704,15	11871
704,334	11951,28
704,519	11852,57
704,703	11938,99
704,888	11941,24
705,072	11940,02
705,257	11855,84
705,441	11987,94
705,625	11920,56
705,81	11985,89
705,994	11943,7
706,179	11939,61
706,363	11982
706,547	12033,81
706,732	11901,31
706,916	11909,71
707,1	11782,32
707,285	11931,82
707,469	11851,34
707,653	11825,53
707,837	11742,39
708,022	11828,4
708,206	11864,86
708,39	11727,85
708,574	11872,43
708,759	11803,01
708,943	11702,04
709,127	11699,18
709,311	11617,67
709,495	11708,8
709,679	11676,03
709,863	11719,25
710,047	11617,87
710,231	11680,95
710,415	11505,85
710,6	11522,44
710,784	11579,57
710,968	11528,99
711,152	11507,08
711,336	11450,76
711,519	11447,48
711,703	11420,65
711,887	11409,18
712,071	11380,31
712,255	11365,36
712,439	11348,36
712,623	11342,01
712,807	11228,96
712,991	11169,57
713,174	11154,62
713,358	11044,85
713,542	11009,01
713,726	10899,24
713,91	10992,63
714,093	10984,64
714,277	10821,01
714,461	10635,46
714,645	10520,36
714,828	10319,46
715,012	10065,72
715,196	9786,99
715,379	9588,95
715,563	9157,24
715,747	8889,77
715,93	8705,25
716,114	8589,13
716,297	8427,95
716,481	8228,48
716,664	8072,84
716,848	7958,56
717,031	7751,1
717,215	7632,52
717,398	7519,68
717,582	7393,73
717,765	7343,35
717,949	7211,87
718,132	7124,01
718,316	7140,4
718,499	7104,56
718,682	7167,43
718,866	7091,04
719,049	7328,6
719,233	7461,72
719,416	7724,89
719,599	7950,98
719,782	8121,17
719,966	8318,59
720,149	8496,97
720,332	8555,34
720,515	8786,14
720,699	8766,28
720,882	8853,93
721,065	8776,11
721,248	8675,96
721,431	8598,76
721,615	8457,45
721,798	8262,68
721,981	8155,17
722,164	7966,14
722,347	7883,19
722,53	7963,68
722,713	7817,25
722,896	7813,56
723,079	7707,07
723,262	7566,99
723,445	7612,45
723,628	7532,38
723,811	7519,27
723,994	7479,34
724,177	7566,99
724,36	7457,22
724,543	7590,34
724,726	7494,9
724,909	7625,15
725,091	7578,05
725,274	7589,93
725,457	7519,27
725,64	7583,58
725,823	7554,5
726,006	7422,2
726,188	7415,64
726,371	7497,97
726,554	7440,01
726,737	7610,2
726,919	7599,55
727,102	7572,31
727,285	7517,84
727,467	7480,56
727,65	7382,06
727,833	7443,09
728,015	7435,3
728,198	7506,57
728,38	7560,23
728,563	7554,5
728,746	7475,65
728,928	7564,53
729,111	7529,31
729,293	7603,65
729,476	7528,69
729,658	7581,32
729,841	7581,12
730,023	7783,66
730,205	7678,6
730,388	7762,98
730,57	7924,97
730,753	8030,85
730,935	8203,09
731,117	8320,85
731,3	8142,47
731,482	8362,83
731,664	8364,06
731,847	8498,81
732,029	8512,13
732,211	8676,78
732,394	8627,43
732,576	8816,66
732,758	8731,87
732,94	8795,56
733,122	8735,76
733,305	8805,8
733,487	8734,54
733,669	8747,85
733,851	8676,78
734,033	8676,17
734,215	8739,86
734,397	8625,99
734,58	8607,77
734,762	8534,86
734,944	8533,22
735,126	8495,13
735,308	8468,5
735,49	8547,56
735,672	8553,29
735,854	8594,25
736,036	8596,5
736,218	8675,76
736,399	8581,76
736,581	8624,15
736,763	8658,15
736,945	8606,95
737,127	8535,88
737,309	8517,25
737,491	8407,68
737,672	8449,25
737,854	8477,72
738,036	8555,75
738,218	8513,56
738,4	8497,59
738,581	8554,93
738,763	8484,89
738,945	8493,69
739,127	8465,23
739,308	8593,02
739,49	8504,14
739,672	8443,31
739,853	8471,78
740,035	8337,84
740,216	8426,32
740,398	8376,35
740,58	8383,51
740,761	8328,42
740,943	8383,51
741,124	8465,84
741,306	8473,83
741,487	8422,22
741,669	8505,57
741,85	8355,66
742,032	8570,49
742,213	8466,05
742,394	8437,17
742,576	8412,59
742,757	8544,07
742,939	8394,78
743,12	8373,27
743,301	8314,29
743,483	8338,66
743,664	8267,6
743,845	8330,68
744,027	8382,69
744,208	8253,88
744,389	8321,67
744,57	8349,11
744,752	8340,92
744,933	8267,6
745,114	8233,81
745,295	8219,68
745,476	8266,57
745,657	8282,75
745,839	8308,35
746,02	8297,7
746,201	8314,29
746,382	8210,87
746,563	8281,73
746,744	8267,39
746,925	8231,96
747,106	8228,69
747,287	8238,72
747,468	8244,66
747,649	8277,43
747,83	8169,09
748,011	8150,66
748,192	8208,62
748,373	8181,79
748,554	8132,23
748,735	8192,03
748,915	8152,71
749,096	8193,05
749,277	8215,58
749,458	8180,56
749,639	8210,87
749,82	8187,32
750	8192,64
750,181	8215,17
750,362	8279,27
750,543	8277,02
750,723	8347,88
750,904	8272,51
751,085	8280,09
751,265	8298,73
751,446	8384,95
751,627	8433,89
751,807	8396,01
751,988	8368,36
752,169	8465,64
752,349	8560,25
752,53	8598,35
752,71	8445,57
752,891	8579,71
753,071	8600,8
753,252	8567,22
753,432	8555,75
753,613	8613,91
753,793	8665,52
753,974	8653,23
754,154	8544,69
754,334	8707,71
754,515	8622,51
754,695	8638,08
754,876	8638,69
755,056	8644,63
755,236	8640,74
755,417	8696,85
755,597	8649,75
755,777	8596,71
755,957	8756,86
756,138	8692,76
756,318	8673,1
756,498	8665,31
756,678	8658,76
756,859	8652,41
757,039	8510,49
757,219	8370,61
757,399	8054,2
757,579	7516,4
757,759	6755,17
757,939	5957,29
758,119	5070,92
758,3	4241,7
758,48	3422,72
758,66	2669,89
758,84	2069,01
759,02	1717,99
759,2	1296,93
759,38	1146,4
759,56	1186,54
759,74	1361,44
759,919	1624,4
760,099	1954,94
760,279	2220,36
760,459	2488,85
760,639	2584,69
760,819	2556,84
760,999	2347,94
761,178	2310,67
761,358	2222,2
761,538	2137,41
761,718	2045,87
761,898	2017,4
762,077	2049,15
762,257	2125,33
762,437	2240,43
762,616	2361,26
762,796	2552,13
762,976	2683,61
763,155	2922,81
763,335	3115,11
763,515	3373,57
763,694	3584,3
763,874	3774,76
764,053	4086,06
764,233	4321,78
764,413	4480,9
764,592	4697,17
764,772	5038,57
764,951	5193,8
765,131	5374,84
765,31	5590,7
765,489	5838,71
765,669	5974,49
765,848	6188,09
766,028	6286,39
766,207	6413,78
766,386	6583,96
766,566	6649,5
766,745	6688,82
766,924	6827,26
767,104	6885,42
767,283	6829,92
767,462	6932,32
767,642	6907,34
767,821	6753,94
768	6931,5
768,179	6903,86
768,358	6887,06
768,538	6911,02
768,717	6941,54
768,896	6957,72
769,075	7036,97
769,254	6863,1
769,433	6918,19
769,612	6859,42
769,791	6850,2
769,97	6831,15
770,149	6832,79
770,328	6712,78
770,507	6743,91
770,686	6654,41
770,865	6716,26
771,044	6664,86
771,223	6612,43
771,402	6573,52
771,581	6574,75
771,76	6530,51
771,939	6531,54
772,118	6471,94
772,297	6463,54
772,475	6383,88
772,654	6456,38
772,833	6351,72
773,012	6266,94
773,191	6230,89
773,369	6230,07
773,548	6197,31
773,727	6104,94
773,906	6150,2
774,084	6114,36
774,263	6164,54
774,442	6008,69
774,62	6067,26
774,799	6080,16
774,977	6050,88
775,156	6019,34
775,335	5969,98
775,513	5929,84
775,692	5874,14
775,87	5960,36
776,049	5784,23
776,227	5790,99
776,406	5773,38
776,584	5711,73
776,763	5684,5
776,941	5642,1
777,119	5656,23
777,298	5613,64
777,476	5634,12
777,655	5566,12
777,833	5560,8
778,011	5518,2
778,19	5483,59
778,368	5466,39
778,546	5450
778,725	5467,62
778,903	5292,72
779,081	5400,85
779,259	5382,63
779,437	5320,78
779,616	5347,4
779,794	5246,84
779,972	5330,81
780,15	5259,75
780,328	5190,12
780,506	5192,37
780,685	5177,21
780,863	5140,15
781,041	5112,91
781,219	5118,85
781,397	5106,35
781,575	4998,02
781,753	5013,17
781,931	4946,2
782,109	4947,23
782,287	4887,22
782,465	4907,5
782,643	4923,27
782,82	4870,84
782,998	4927,36
783,176	4870,43
783,354	4789,74
783,532	4822,71
783,71	4785,85
783,888	4754,51
784,065	4758,4
784,243	4730,76
784,421	4725,02
784,599	4688,57
784,776	4611,56
784,954	4588,22
785,132	4591,49
785,31	4501,38
785,487	4522,27
785,665	4508,96
785,842	4513,88
786,02	4515,52
786,198	4406,36
786,375	4318,71
786,553	4398,58
786,73	4316,66
786,908	4249,28
787,085	4253,58
787,263	4227,16
787,44	4209,75
787,618	4158,96
787,795	4051,24
787,973	4022,16
788,15	4057,79
788,328	4046,53
788,505	4056,97
788,682	4055,95
788,86	3993,9
789,037	4003,52
789,215	4001,07
789,392	3963,18
789,569	3937,17
789,746	3972,8
789,924	3896,82
790,101	3928,77
790,278	3863,65
790,455	3844,4
790,633	3841,32
790,81	3826,99
790,987	3765,34
791,164	3774,97
791,341	3770,87
791,518	3750,6
791,695	3769,64
791,873	3724,38
792,05	3722,34
792,227	3719,67
792,404	3755,92
792,581	3701,86
792,758	3721,31
792,935	3679,94
793,112	3674,21
793,289	3671,75
793,466	3677,28
793,643	3672,98
793,82	3588,6
793,996	3602,12
794,173	3581,23
794,35	3487,43
794,527	3542,32
794,704	3457,74
794,881	3405,72
795,057	3449,34
795,234	3410,02
795,411	3514,67
795,588	3474,74
795,765	3412,89
795,941	3481,7
796,118	3489,28
796,295	3515,7
796,471	3492,76
796,648	3473,71
796,825	3467,16
797,001	3419,03
797,178	3495,83
797,354	3426,2
797,531	3400,81
797,708	3351,04
797,884	3348,99
798,061	3233,08
798,237	3252,94
798,414	3218,13
798,59	3266,87
798,767	3187,82
798,943	3183,31
799,119	3241,68
799,296	3170,82
799,472	3179,22
799,649	3137,64
799,825	3151,77
800,001	3098,94
800,178	3088,49
800,354	3174,91
800,53	3129,04
800,707	3071,7
800,883	3070,88
801,059	3060,23
801,235	3051,42
801,411	3015,58
801,588	2974,62
801,764	3122,69
801,94	3015,79
802,116	2997,15
802,292	3007,8
802,468	3031,97
802,645	3005,96
802,821	2991,01
802,997	2935,51
803,173	2940,83
803,349	2973,6
803,525	2961,93
803,701	2920,76
803,877	2935,71
804,053	2936,33
804,229	2969,3
804,405	3006,98
804,581	2997,97
804,756	2968,07
804,932	2918,3
805,108	2934,07
805,284	2888,81
805,46	2939,4
805,636	2943,08
805,812	2873,25
805,987	2871,61
806,163	2841,3
806,339	2912,37
806,515	2769,62
806,69	2825,94
806,866	2822,25
807,042	2779,04
807,217	2764,71
807,393	2719,86
807,569	2684,43
807,744	2749,55
807,92	2730,3
808,096	2676,23
808,271	2662,72
808,447	2630,77
808,622	2599,64
808,798	2602,71
808,973	2574,45
809,149	2562,98
809,324	2582,44
809,5	2515,06
809,675	2534,51
809,851	2503,59
810,026	2444,61
810,201	2457,51
810,377	2438,47
810,552	2407,95
810,728	2374,57
810,903	2397,51
811,078	2323,98
811,253	2271,56
811,429	2208,48
811,604	2168,95
811,779	2149,91
811,955	2148,88
812,13	2051,19
812,305	2086,62
812,48	2006,34
812,655	2035,22
812,83	1967,43
813,006	1919,51
813,181	1896,57
813,356	1816,29
813,531	1777,38
813,706	1823,66
813,881	1799,29
814,056	1769,39
814,231	1794,79
814,406	1665,36
814,581	1659,21
814,756	1651,23
814,931	1575,25
815,106	1637,91
815,281	1663,31
815,456	1702,02
815,631	1702,22
815,805	1663,1
815,98	1639,55
816,155	1638,94
816,33	1601,26
816,505	1584,46
816,68	1640,58
816,854	1614,77
817,029	1647,33
817,204	1679,9
817,379	1640,78
817,553	1675,19
817,728	1640,99
817,903	1622,14
818,077	1683,99
818,252	1643,44
818,427	1699,35
818,601	1776,36
818,776	1782,3
818,95	1835,95
819,125	1893,09
819,299	1870,77
819,474	1890,22
819,648	1874,86
819,823	1880,8
819,997	1891,45
820,172	1783,93
820,346	1779,22
820,521	1697,71
820,695	1615,18
820,87	1530,19
821,044	1401,17
821,218	1393,59
821,393	1386,22
821,567	1302,87
821,741	1341,57
821,916	1387,86
822,09	1489,85
822,264	1550,88
822,438	1547,19
822,613	1612,11
822,787	1696,08
822,961	1706,52
823,135	1745,02
823,309	1749,32
823,483	1755,88
823,658	1782,71
823,832	1764,07
824,006	1688,7
824,18	1727,82
824,354	1704,27
824,528	1724,34
824,702	1740,31
824,876	1730,28
825,05	1762,64
825,224	1758,13
825,398	1714,3
825,572	1650,82
825,746	1605,35
825,92	1600,85
826,093	1545,14
826,267	1548,01
826,441	1528,35
826,615	1578,52
826,789	1518,11
826,963	1556,41
827,136	1542,48
827,31	1536,13
827,484	1516,26
827,658	1525,28
827,831	1545,96
828,005	1559,48
828,179	1525,28
828,353	1527,12
828,526	1502,13
828,7	1526,5
828,873	1523,84
829,047	1541,86
829,221	1552,72
829,394	1492,51
829,568	1539
829,741	1555,18
829,915	1506,23
830,088	1508,28
830,262	1472,03
830,435	1463,84
830,609	1531,01
830,782	1543,09
830,956	1528,96
831,129	1546,57
831,302	1506,84
831,476	1481,24
831,649	1458,72
831,822	1481,04
831,996	1489,23
832,169	1505,82
832,342	1443,56
832,516	1550,06
832,689	1477,76
832,862	1529,37
833,035	1557,63
833,209	1536,54
833,382	1556,2
833,555	1505
833,728	1514,22
833,901	1497,22
834,074	1578,11
834,247	1469,98
834,42	1512,99
834,594	1461,99
834,767	1544,53
834,94	1503,16
835,113	1556,2
835,286	1522,2
835,459	1556
835,632	1472,03
835,805	1501,11
835,977	1521,59
836,15	1494,15
836,323	1503,98
836,496	1520,16
836,669	1496,6
836,842	1470,8
837,015	1516,26
837,188	1484,93
837,36	1530,81
837,533	1480,43
837,706	1461,99
837,879	1535,31
838,051	1454,83
838,224	1535,11
838,397	1485,95
838,569	1494,97
838,742	1481,65
838,915	1425,95
839,087	1474,28
839,26	1464,45
839,433	1475,31
839,605	1503,16
839,778	1388,06
839,95	1448,89
840,123	1400,15
840,295	1423,9
840,468	1406,49
840,64	1400,35
840,813	1451,75
840,985	1389,91
841,158	1408,13
841,33	1396,25
841,502	1422,06
841,675	1415,5
841,847	1422,67
842,019	1344,65
842,192	1337,07
842,364	1369,02
842,536	1350,17
842,709	1315,15
842,881	1351,2
843,053	1330,1
843,225	1329,08
843,398	1357,55
843,57	1361,03
843,742	1318,23
843,914	1355,91
844,086	1354,68
844,258	1287,92
844,43	1338,5
844,602	1340,55
844,775	1284,03
844,947	1290,78
845,119	1267,03
845,291	1337,27
845,463	1320,68
845,635	1277,68
845,807	1296,93
845,979	1292,63
846,15	1272,97
846,322	1237,74
846,494	1247,78
846,666	1240,61
846,838	1283,41
847,01	1215,21
847,182	1210,5
847,354	1241,84
847,525	1234,87
847,697	1179,17
847,869	1141,08
848,041	1171,18
848,212	1139,64
848,384	1109,95
848,556	1122,24
848,727	1152,55
848,899	1123,05
849,071	1150,29
849,242	1119,37
849,414	1155,21
849,585	1123,26
849,757	1119,37
849,929	1147,84
850,1	1086,81
850,272	1121,21
850,443	1111,79
850,615	1151,93
850,786	1108,1
850,958	1084,55
851,129	1123,26
851,3	1141,49
851,472	1068,17
851,643	1074,31
851,815	1070,01
851,986	1038,88
852,157	993,21
852,329	1016,56
852,5	942,42
852,671	968,43
852,842	918,05
853,014	887,95
853,185	923,79
853,356	922,35
853,527	930,55
853,698	976,01
853,87	970,07
854,041	1009,6
854,212	964,75
854,383	990,55
854,554	963,72
854,725	1046,26
854,896	977,65
855,067	1005,71
855,238	991,37
855,409	988,5
855,58	991,78
855,751	1016,77
855,922	992,8
856,093	1069,19
856,264	958,4
856,435	968,84
856,606	957,37
856,777	957,17
856,948	949,59
857,118	936,48
857,289	938,53
857,46	987,89
857,631	944,06
857,802	931,16
857,972	913,34
858,143	967,2
858,314	919,9
858,484	880,58
858,655	911,5
858,826	907,2
858,996	924,81
859,167	951,23
859,338	926,04
859,508	869,52
859,679	887,74
859,849	888,15
860,02	874,64
860,19	868,29
860,361	916,41
860,531	875,66
860,702	925,22
860,872	891,02
861,043	838,39
861,213	897,57
861,384	852,11
861,554	839,62
861,724	799,27
861,895	849,24
862,065	827,74
862,235	872,59
862,406	840,64
862,576	826,71
862,746	834,5
862,916	818,11
863,087	890
863,257	819,34
863,427	783,71
863,597	816,27
863,767	802,75
863,937	729,23
864,108	799,48
864,278	739,06
864,448	741,11
864,618	735,99
864,788	651
864,958	707,73
865,128	646,49
865,298	639,53
865,468	668,2
865,638	679,87
865,808	710,8
865,978	754,22
866,148	673,73
866,318	674,75
866,487	728
866,657	691,75
866,827	735,78
866,997	689,09
867,167	734,15
867,337	720,63
867,506	699,13
867,676	695,64
867,846	680,9
868,016	707,52
868,185	660,62
868,355	688,27
868,525	685,81
868,694	689,3
868,864	711,21
869,034	679,26
869,203	686,02
869,373	643,63
869,542	685,61
869,712	678,24
869,881	656,53
870,051	621,1
870,22	654,48
870,39	628,88
870,559	624,37
870,729	592,02
870,898	637,07
871,068	642,6
871,237	619,87
871,406	602,46
871,576	590,38
871,745	600,62
871,914	596,11
872,084	581,98
872,253	599,59
872,422	565,39
872,591	598,57
872,761	572,56
872,93	831,01
873,099	579,93
873,268	564,37
873,437	540,82
873,607	549,62
873,776	599,8
873,945	554,74
874,114	540,41
874,283	524,43
874,452	552,49
874,621	541,84
874,79	570,31
874,959	550,65
875,128	521,36
875,297	546,14
875,466	555,36
875,635	541,23
875,804	530,17
875,973	495,76
876,142	548,19
876,31	468,93
876,479	512,56
876,648	510,92
876,817	468,93
876,986	538,77
877,155	513,58
877,323	461,97
877,492	509,89
877,661	538,15
877,829	474,26
877,998	449,07
878,167	504,36
878,335	465,86
878,504	448,04
878,673	460,33
878,841	421,22
879,01	465,66
879,178	460,54
879,347	462,79
879,515	449,89
879,684	489,41
879,852	424,7
880,021	441,7
880,189	456,44
880,358	447,02
880,526	528,12
880,695	411,39
880,863	455,83
881,031	410,36
881,2	443,95
881,368	379,44
881,536	467,5
881,705	409,34
881,873	424,7
882,041	424,29
882,21	429,61
882,378	439,44
882,546	419,17
882,714	405,45
882,882	395,82
883,05	413,02
883,219	378
883,387	389,68
883,555	383,74
883,723	364,49
883,891	393,98
884,059	378,21
884,227	430,23
884,395	390,5
884,563	424,08
884,731	387,42
884,899	407,9
885,067	380,26
885,235	380,26
885,403	372,27
885,571	365,92
885,739	335,61
