Data from Subt14__0__10-03-53-564.txt Node

Date: Mon Feb 19 10:03:53 CET 2024
User: Versuch 234
Spectrometer: USB4F03543
Trigger mode: 4
Integration Time (sec): 1,000000E-1
Scans to average: 10
Electric dark correction enabled: true
Nonlinearity correction enabled: false
Boxcar width: 0
XAxis mode: Wavelengths
Number of Pixels in Spectrum: 3648
>>>>>Begin Spectral Data<<<<<
179,969	-40,28
180,181	-40,28
180,394	-40,28
180,606	4,37
180,819	5,6
181,031	-19,39
181,243	-5,87
181,456	-10,99
181,668	10,51
181,88	6,42
182,093	10,72
182,305	7,44
182,518	6,21
182,73	14,2
182,942	-0,14
183,155	-28,81
183,367	9,69
183,579	-2,59
183,791	-13,24
184,004	-12,22
184,216	25,87
184,428	-4,64
184,641	17,07
184,853	-0,14
185,065	6,62
185,277	-30,65
185,49	3,96
185,702	-25,12
185,914	-5,87
186,126	-7,92
186,338	-25,33
186,551	-11,81
186,763	6,83
186,975	16,25
187,187	6,83
187,399	13,79
187,612	2,94
187,824	3,14
188,036	-8,94
188,248	-2,39
188,46	-4,64
188,672	-27,17
188,885	-28,81
189,097	6,21
189,309	-47,04
189,521	-21,44
189,733	1,09
189,945	-1,16
190,157	11,33
190,369	12,36
190,581	-25,12
190,794	8,06
191,006	1,71
191,218	-24,92
191,43	-13,45
191,642	-0,55
191,854	-11,2
192,066	-3,82
192,278	-16,73
192,49	7,65
192,702	-20,21
192,914	12,56
193,126	-28,6
193,338	-17,54
193,55	-16,93
193,762	-15,29
193,974	-25,94
194,186	-13,86
194,398	-24,71
194,61	-25,12
194,822	4,37
195,034	16,04
195,246	-14,88
195,457	17,89
195,669	-15,7
195,881	-6,69
196,093	3,35
196,305	6,62
196,517	10,51
196,729	-17,34
196,941	-16,52
197,153	-36,39
197,365	-12,83
197,576	0,68
197,788	-12,83
198	-25,94
198,212	-7,92
198,424	-8,53
198,636	-28,6
198,847	7,65
199,059	13,79
199,271	-11,2
199,483	-19,18
199,695	-6,49
199,906	-43,35
200,118	-15,91
200,33	25,46
200,542	5,19
200,753	-5,05
200,965	-10,58
201,177	-24,92
201,389	-31,68
201,6	17,68
201,812	-4,44
202,024	25,05
202,235	-17,54
202,447	-9,15
202,659	-22,66
202,871	9,69
203,082	-7,1
203,294	-9,15
203,506	-6,28
203,717	-20,62
203,929	-21,03
204,141	-8,94
204,352	24,03
204,564	-31,27
204,775	-1,57
204,987	0,07
205,199	-30,24
205,41	2,32
205,622	0,27
205,833	3,14
206,045	-5,05
206,257	-6,28
206,468	-20
206,68	-3,82
206,891	-37
207,103	-16,32
207,314	5,8
207,526	12,97
207,737	-1,16
207,949	-7,51
208,16	-6,08
208,372	-17,13
208,583	-4,64
208,795	-1,57
209,006	4,16
209,218	5,19
209,429	25,05
209,641	-1,37
209,852	-24,3
210,064	-25,33
210,275	22,8
210,487	11,74
210,698	-5,87
210,909	-8,94
211,121	-24,51
211,332	-4,23
211,544	-9,35
211,755	-10,58
211,966	9,49
212,178	11,13
212,389	7,03
212,6	18,91
212,812	-12,42
213,023	4,57
213,234	15,02
213,446	23,01
213,657	4,57
213,868	-12,01
214,08	-1,57
214,291	6,42
214,502	12,36
214,714	-40,28
214,925	24,64
215,136	17,07
215,347	-2,8
215,559	-11,4
215,77	-18,36
215,981	-24,71
216,192	-11,2
216,404	-12,22
216,615	-25,53
216,826	-9,76
217,037	-10,79
217,249	4,16
217,46	1,09
217,671	17,27
217,882	-11,81
218,093	-2,39
218,304	-13,45
218,516	-35,77
218,727	-18,57
218,938	-26,96
219,149	-0,55
219,36	-11,4
219,571	5,8
219,782	19,11
219,993	-22,05
220,205	-20,82
220,416	14,4
220,627	-23,07
220,838	5,19
221,049	-10,17
221,26	13,18
221,471	-21,85
221,682	-9,35
221,893	4,98
222,104	-20,62
222,315	-9,97
222,526	-13,86
222,737	3,14
222,948	3,75
223,159	7,65
223,37	-29,22
223,581	1,09
223,792	-30,86
224,003	-13,24
224,214	15,22
224,425	-1,57
224,636	18,3
224,847	-3,21
225,058	-6,28
225,269	23,21
225,48	-8,33
225,691	3,14
225,902	-3,21
226,112	-16,52
226,323	-13,86
226,534	-13,24
226,745	-22,46
226,956	20,96
227,167	-27,37
227,378	-3,21
227,589	-4,44
227,799	4,16
228,01	18,3
228,221	-11,81
228,432	11,95
228,643	-38,64
228,853	-18,98
229,064	12,36
229,275	14,81
229,486	-3,41
229,697	-15,29
229,907	-16,93
230,118	-29,01
230,329	4,98
230,54	1,91
230,75	-9,97
230,961	-14,27
231,172	-11,81
231,383	-1,98
231,593	13,99
231,804	28,33
232,015	-30,45
232,225	-7,3
232,436	6,01
232,647	-29,42
232,857	-18,36
233,068	-1,37
233,279	-12,22
233,489	-9,97
233,7	-10,17
233,91	-0,14
234,121	-1,98
234,332	-3,82
234,542	36,11
234,753	10,31
234,964	-0,96
235,174	2,12
235,385	4,57
235,595	-8,33
235,806	-13,65
236,016	-6,28
236,227	19,73
236,437	1,91
236,648	33,25
236,858	-2,59
237,069	-1,16
237,279	4,57
237,49	20,96
237,7	-9,97
237,911	-30,24
238,121	-24,92
238,332	-3,21
238,542	-6,89
238,753	23,21
238,963	-5,87
239,174	13,38
239,384	-25,12
239,595	30,38
239,805	14,2
240,015	21,57
240,226	-23,69
240,436	16,04
240,647	-10,58
240,857	25,46
241,067	-22,46
241,278	-24,1
241,488	-6,89
241,698	-16,32
241,909	-8,74
242,119	-4,03
242,329	-16,52
242,54	-19,18
242,75	-22,25
242,96	7,24
243,171	-21,23
243,381	-5,46
243,591	-31,88
243,801	24,44
244,012	0,68
244,222	-16,32
244,432	-3,41
244,642	4,37
244,853	-13,86
245,063	-7,92
245,273	-3,82
245,483	12,15
245,694	-16,52
245,904	-3
246,114	9,49
246,324	-4,03
246,534	-2,39
246,744	20,14
246,955	20,34
247,165	-5,46
247,375	6,21
247,585	6,21
247,795	-27,17
248,005	9,49
248,215	-7,1
248,425	0,68
248,636	13,79
248,846	-10,99
249,056	21,78
249,266	-28,4
249,476	12,97
249,686	-22,46
249,896	-8,53
250,106	0,89
250,316	-9,35
250,526	22,6
250,736	-4,23
250,946	-15,91
251,156	-18,36
251,366	-18,16
251,576	2,73
251,786	1,09
251,996	7,65
252,206	-6,28
252,416	-3,41
252,626	-2,59
252,836	25,87
253,046	-13,24
253,256	-12,63
253,466	12,56
253,676	-11,61
253,885	-18,57
254,095	-5,05
254,305	-7,1
254,515	-19,59
254,725	14,61
254,935	-10,58
255,145	-0,55
255,355	5,6
255,564	-4,64
255,774	0,27
255,984	-13,65
256,194	-13,65
256,404	-19,18
256,614	12,15
256,823	-35,77
257,033	5,8
257,243	37,75
257,453	3,35
257,662	-0,75
257,872	2,32
258,082	11,74
258,292	1,5
258,501	-8,33
258,711	1,91
258,921	-28,81
259,131	31,2
259,34	-24,92
259,55	18,09
259,76	-19,8
259,969	-1,16
260,179	4,78
260,389	-13,45
260,598	-14,68
260,808	10,31
261,018	0,07
261,227	0,27
261,437	-12,83
261,647	3,75
261,856	-9,97
262,066	4,37
262,275	-26,35
262,485	-3,82
262,694	0,68
262,904	10,51
263,114	10,92
263,323	0,68
263,533	32,63
263,742	-11,4
263,952	-44,78
264,161	-0,96
264,371	-29,42
264,58	-5,46
264,79	16,25
264,999	-4,64
265,209	10,92
265,418	-4,03
265,628	-8,12
265,837	10,31
266,047	-23,89
266,256	5,8
266,466	-6,89
266,675	-34,95
266,884	7,44
267,094	-27,37
267,303	-31,88
267,513	31,4
267,722	-2,59
267,931	-9,97
268,141	5,8
268,35	-1,57
268,559	6,83
268,769	7,85
268,978	2,53
269,187	-10,17
269,397	-11,2
269,606	-1,77
269,815	26,49
270,025	-6,69
270,234	17,89
270,443	-7,71
270,653	-8,94
270,862	-5,05
271,071	2,94
271,28	3,35
271,49	13,79
271,699	-7,92
271,908	12,56
272,117	-20,62
272,327	1,5
272,536	-18,36
272,745	-12,83
272,954	-21,44
273,163	31,4
273,372	33,04
273,582	6,62
273,791	-18,36
274	-14,68
274,209	-14,06
274,418	-7,1
274,627	-34,13
274,836	-16,93
275,046	-3,21
275,255	13,79
275,464	10,51
275,673	-5,87
275,882	-0,55
276,091	0,68
276,3	-1,37
276,509	-1,16
276,718	-1,57
276,927	9,08
277,136	-25,74
277,345	0,48
277,554	-13,24
277,763	2,12
277,972	-3,41
278,181	-0,75
278,39	7,44
278,599	4,57
278,808	-3,41
279,017	-23,48
279,226	-12,63
279,435	23,01
279,644	-15,91
279,853	-52,97
280,062	3,14
280,271	8,46
280,48	-9,97
280,688	-0,96
280,897	-9,15
281,106	-5,87
281,315	16,86
281,524	-10,79
281,733	-8,94
281,942	12,15
282,151	16,25
282,359	25,05
282,568	-21,44
282,777	-16,93
282,986	0,07
283,195	-9,15
283,403	9,08
283,612	5,8
283,821	2,94
284,03	-59,94
284,238	-1,16
284,447	-2,59
284,656	-2,18
284,865	-24,1
285,073	-14,27
285,282	7,03
285,491	-13,24
285,699	0,48
285,908	-24,1
286,117	11,33
286,325	-37,82
286,534	-20,21
286,743	-6,28
286,951	10,51
287,16	15,22
287,369	3,35
287,577	6,01
287,786	-4,23
287,995	-9,97
288,203	16,45
288,412	29,35
288,62	-14,68
288,829	20,75
289,037	-13,86
289,246	10,51
289,455	4,16
289,663	33,86
289,872	12,15
290,08	-8,94
290,289	24,85
290,497	2,73
290,706	6,01
290,914	-20,82
291,123	-19,39
291,331	8,06
291,54	-4,03
291,748	-6,49
291,957	-24,3
292,165	0,68
292,373	-36,8
292,582	-2,18
292,79	-1,37
292,999	2,53
293,207	-3,62
293,415	-7,1
293,624	0,68
293,832	-8,33
294,041	-7,1
294,249	2,94
294,457	-5,87
294,666	9,28
294,874	-35,16
295,082	-4,44
295,291	6,21
295,499	5,39
295,707	-13,04
295,915	-2,39
296,124	23,21
296,332	15,02
296,54	12,15
296,749	16,25
296,957	12,36
297,165	-14,06
297,373	-17,13
297,581	26,69
297,79	-25,12
297,998	-19,39
298,206	-3
298,414	12,56
298,622	-27,78
298,831	12,97
299,039	-11,4
299,247	-8,33
299,455	-1,77
299,663	-20
299,871	4,78
300,08	0,48
300,288	2,12
300,496	-4,23
300,704	14,2
300,912	3,75
301,12	-17,13
301,328	2,53
301,536	7,24
301,744	3,96
301,952	12,36
302,16	-8,53
302,368	-17,75
302,576	2,73
302,784	-1,57
302,992	10,92
303,2	10,51
303,408	-21,84
303,616	18,7
303,824	-34,34
304,032	-9,97
304,24	21,16
304,448	-8,74
304,656	3,35
304,864	8,87
305,072	-12,42
305,28	19,73
305,488	18,09
305,696	-12,22
305,904	5,8
306,111	-1,98
306,319	-25,74
306,527	4,37
306,735	16,45
306,943	-3,41
307,151	-2,39
307,359	8,26
307,566	5,39
307,774	-43,14
307,982	-15,7
308,19	-9,15
308,398	-13,45
308,605	-10,99
308,813	-24,92
309,021	19,11
309,229	2,94
309,436	-5,87
309,644	-7,71
309,852	40,62
310,06	7,85
310,267	-15,5
310,475	21,98
310,683	-5,67
310,89	-6,69
311,098	5,19
311,306	10,51
311,513	-33,11
311,721	7,85
311,929	22,6
312,136	11,74
312,344	-24,1
312,552	-18,98
312,759	15,63
312,967	-3
313,174	-14,27
313,382	11,13
313,589	-27,58
313,797	-13,04
314,005	25,67
314,212	0,27
314,42	-25,33
314,627	8,46
314,835	-22,87
315,042	30,38
315,25	30,17
315,457	-27,17
315,665	-14,47
315,872	12,77
316,08	-1,77
316,287	-41,1
316,495	39,39
316,702	6,42
316,909	28,13
317,117	-18,16
317,324	-11,2
317,532	-8,12
317,739	-20
317,946	9,49
318,154	-18,36
318,361	-13,45
318,569	8,06
318,776	5,39
318,983	-10,99
319,191	-10,38
319,398	1,91
319,605	3,14
319,813	-2,8
320,02	-15,09
320,227	-4,03
320,434	9,49
320,642	18,7
320,849	15,84
321,056	-31,06
321,264	-27,78
321,471	-12,22
321,678	-10,79
321,885	3,55
322,092	10,92
322,3	29,15
322,507	1,09
322,714	-16,11
322,921	-12,01
323,128	-12,01
323,336	-50,72
323,543	19,73
323,75	0,27
323,957	0,07
324,164	-24,3
324,371	-9,97
324,578	-6,89
324,786	-15,91
324,993	-23,48
325,2	-3,62
325,407	-21,85
325,614	4,98
325,821	3,96
326,028	-1,37
326,235	4,98
326,442	8,26
326,649	-15,09
326,856	12,97
327,063	-3
327,27	6,21
327,477	-18,57
327,684	-18,57
327,891	-9,15
328,098	-8,74
328,305	11,54
328,512	1,91
328,719	11,54
328,926	7,65
329,133	-33,72
329,34	7,03
329,546	-40,69
329,753	4,78
329,96	-7,71
330,167	3,14
330,374	4,78
330,581	-22,66
330,788	-34,75
330,995	-9,76
331,201	6,01
331,408	-6,49
331,615	20,96
331,822	-13,04
332,029	2,12
332,235	11,13
332,442	-41,1
332,649	16,04
332,856	-13,04
333,062	-4,85
333,269	-41,71
333,476	-17,75
333,683	24,64
333,889	-13,45
334,096	0,89
334,303	-5,87
334,509	-30,65
334,716	-6,89
334,923	-5,87
335,129	-16,93
335,336	32,43
335,543	-15,7
335,749	-1,77
335,956	-0,14
336,163	-2,18
336,369	-18,36
336,576	-28,19
336,782	-26,76
336,989	5,6
337,196	3,55
337,402	-5,05
337,609	8,67
337,815	-7,92
338,022	-52,36
338,228	-7,1
338,435	-18,36
338,641	-3
338,848	-23,07
339,054	-35,57
339,261	-22,05
339,467	-14,47
339,674	-0,14
339,88	-3,82
340,087	37,96
340,293	-5,46
340,5	-18,98
340,706	-13,24
340,912	-0,75
341,119	-1,77
341,325	0,68
341,532	-16,73
341,738	-18,16
341,944	-10,99
342,151	10,72
342,357	3,55
342,563	8,87
342,77	-39,66
342,976	-21,85
343,182	-13,45
343,389	-52,15
343,595	-14,68
343,801	4,98
344,007	-3,21
344,214	-39,25
344,42	17,89
344,626	-31,88
344,832	14,61
345,039	6,83
345,245	-14,06
345,451	-17,75
345,657	-28,4
345,864	-0,55
346,07	-9,15
346,276	-30,65
346,482	-9,97
346,688	-29,63
346,894	-16,93
347,1	-24,71
347,307	7,03
347,513	-22,66
347,719	-9,15
347,925	-32,9
348,131	5,8
348,337	-27,58
348,543	-20,62
348,749	12,36
348,955	-9,35
349,161	-9,97
349,367	-25,33
349,573	-36,18
349,779	-1,57
349,985	5,19
350,191	-6,89
350,397	8,67
350,603	-22,05
350,809	-10,79
351,015	-40,07
351,221	-25,74
351,427	3,14
351,633	2,12
351,839	-18,77
352,045	3,35
352,251	12,36
352,457	12,15
352,663	-3
352,869	-20,41
353,075	-25,12
353,28	13,38
353,486	-22,66
353,692	1,3
353,898	-16,93
354,104	-10,79
354,31	-26,15
354,515	-5,26
354,721	-3
354,927	-16,52
355,133	-15,7
355,339	-24,1
355,544	-28,4
355,75	8,46
355,956	7,65
356,162	-16,73
356,367	-23,48
356,573	1,91
356,779	30,58
356,984	-19,59
357,19	5,8
357,396	-31,47
357,602	-25,94
357,807	-4,44
358,013	-9,15
358,218	-32,29
358,424	3,96
358,63	-20,21
358,835	-7,92
359,041	-3,82
359,247	-0,55
359,452	-37,82
359,658	-2,59
359,863	-18,77
360,069	-40,48
360,274	-11,81
360,48	-31,68
360,685	-40,89
360,891	-11,2
361,097	-28,81
361,302	-24,71
361,508	-12,22
361,713	-14,27
361,918	19,93
362,124	18,7
362,329	17,27
362,535	-24,71
362,74	-12,01
362,946	7,85
363,151	18,91
363,357	-29,63
363,562	-27,99
363,767	-30,65
363,973	-11,61
364,178	-12,63
364,383	-13,65
364,589	-10,79
364,794	-16,93
365	15,43
365,205	-23,89
365,41	-6,69
365,615	-14,06
365,821	-1,57
366,026	-3,82
366,231	3,96
366,437	-12,63
366,642	6,62
366,847	-5,46
367,052	9,28
367,258	-8,74
367,463	-44,78
367,668	-12,22
367,873	-8,94
368,078	-19,18
368,284	-5,26
368,489	-14,68
368,694	16,86
368,899	1,3
369,104	-41,71
369,309	-0,34
369,515	-14,88
369,72	-27,99
369,925	-18,16
370,13	-19,39
370,335	-12,01
370,54	2,32
370,745	-22,05
370,95	-8,12
371,155	-8,12
371,36	-41,71
371,565	-8,12
371,77	-45,4
371,975	-29,63
372,18	-27,99
372,385	-21,23
372,59	-9,97
372,795	-8,74
373	-7,3
373,205	-20,82
373,41	-41,71
373,615	-12,01
373,82	18,3
374,025	6,42
374,23	-15,29
374,435	-26,15
374,64	-13,65
374,845	-5,87
375,05	-36,39
375,254	-24,1
375,459	-20
375,664	-18,98
375,869	-41,3
376,074	-5,26
376,279	-21,03
376,483	-20,62
376,688	4,57
376,893	-14,68
377,098	-3,62
377,303	-27,78
377,507	-35,77
377,712	-26,15
377,917	-1,77
378,122	-27,99
378,326	6,01
378,531	-5,67
378,736	-47,65
378,94	-8,94
379,145	3,75
379,35	-13,04
379,554	-28,19
379,759	-5,67
379,964	-26,76
380,168	-7,92
380,373	-51,34
380,578	-15,7
380,782	-6,89
380,987	-6,69
381,191	-6,49
381,396	0,07
381,601	-46,22
381,805	-23,07
382,01	-28,19
382,214	4,98
382,419	-5,05
382,623	25,46
382,828	6,01
383,032	17,07
383,237	-37,41
383,441	-32,29
383,646	-16,11
383,85	-11,81
384,055	-12,42
384,259	3,75
384,464	-30,24
384,668	3,55
384,872	7,24
385,077	-22,87
385,281	-30,24
385,486	-20,62
385,69	-10,38
385,894	1,3
386,099	-12,22
386,303	-24,92
386,507	-26,56
386,712	-15,29
386,916	-0,96
387,12	-19,8
387,325	-18,16
387,529	7,65
387,733	-5,05
387,937	-1,77
388,142	-29,01
388,346	-3,21
388,55	-4,44
388,754	27,72
388,959	-3,21
389,163	-23,28
389,367	-25,94
389,571	-23,28
389,775	10,31
389,98	-17,34
390,184	-4,03
390,388	19,32
390,592	2,12
390,796	-24,1
391	-17,34
391,204	-31,47
391,409	-14,27
391,613	-22,25
391,817	-30,65
392,021	-19,18
392,225	2,73
392,429	23,82
392,633	-4,85
392,837	-12,01
393,041	8,87
393,245	13,38
393,449	-23,89
393,653	-13,24
393,857	16,86
394,061	-14,27
394,265	-3,62
394,469	3,14
394,673	-0,96
394,877	-9,76
395,081	5,39
395,285	-25,12
395,489	-24,51
395,693	4,37
395,896	2,32
396,1	-18,16
396,304	8,06
396,508	-14,68
396,712	-8,74
396,916	22,19
397,12	-3,41
397,323	-5,87
397,527	4,78
397,731	-6,69
397,935	9,69
398,139	16,45
398,342	11,33
398,546	-0,75
398,75	-4,03
398,954	-40,28
399,157	16,45
399,361	-16,93
399,565	3,96
399,769	-2,18
399,972	-0,75
400,176	34,88
400,38	-22,05
400,583	20,14
400,787	1,3
400,991	5,19
401,194	-0,14
401,398	-5,05
401,601	-15,29
401,805	40,62
402,009	14,81
402,212	-3,21
402,416	19,32
402,619	-9,97
402,823	3,35
403,026	9,49
403,23	17,68
403,433	-4,44
403,637	21,98
403,841	33,65
404,044	19,73
404,247	-1,77
404,451	2,32
404,654	22,6
404,858	12,15
405,061	0,68
405,265	7,85
405,468	47,58
405,672	-2,8
405,875	9,9
406,078	-15,09
406,282	27,92
406,485	11,13
406,689	-2,8
406,892	39,39
407,095	16,86
407,299	20,14
407,502	17,07
407,705	1,91
407,909	29,76
408,112	22,8
408,315	21,78
408,518	-0,34
408,722	7,24
408,925	2,53
409,128	45,53
409,331	23,21
409,535	16,04
409,738	-5,67
409,941	21,57
410,144	33,65
410,347	31,2
410,551	60,07
410,754	25,67
410,957	20,14
411,16	28,33
411,363	55,98
411,566	39,59
411,769	32,43
411,973	-12,83
412,176	-7,51
412,379	20,14
412,582	4,16
412,785	13,79
412,988	25,05
413,191	30,17
413,394	6,83
413,597	24,44
413,8	40,62
414,003	24,03
414,206	45,33
414,409	27,51
414,612	21,37
414,815	25,46
415,018	10,72
415,221	52,7
415,424	24,85
415,627	6,62
415,83	33,86
416,033	12,97
416,235	31,61
416,438	37,14
416,641	40
416,844	52,5
417,047	19,73
417,25	26,08
417,453	24,44
417,655	22,39
417,858	40
418,061	32,84
418,264	38,16
418,467	28,94
418,669	4,16
418,872	10,1
419,075	-3,82
419,278	36,73
419,48	37,14
419,683	11,33
419,886	13,18
420,089	35,5
420,291	38,57
420,494	2,94
420,697	32,22
420,899	38,77
421,102	23,62
421,305	67,24
421,507	20,14
421,71	31,81
421,912	20,34
422,115	47,17
422,318	4,98
422,52	12,77
422,723	26,9
422,925	57,41
423,128	30,17
423,33	44,71
423,533	17,48
423,735	28,94
423,938	17,07
424,14	32,22
424,343	26,49
424,545	18,5
424,748	32,63
424,95	23,42
425,153	43,69
425,355	30,38
425,558	36,11
425,76	33,04
425,962	26,49
426,165	42,26
426,367	26,69
426,57	54,75
426,772	-4,03
426,974	37,55
427,177	42,67
427,379	38,77
427,581	46,56
427,784	57
427,986	13,58
428,188	45,94
428,39	15,02
428,593	14,81
428,795	24,85
428,997	45,12
429,2	1,5
429,402	15,22
429,604	10,72
429,806	30,58
430,008	17,68
430,211	-17,13
430,413	56,59
430,615	25,05
430,817	32,43
431,019	57,21
431,221	43,49
431,423	27,31
431,626	22,19
431,828	14,61
432,03	36,73
432,232	34,27
432,434	35,5
432,636	31,81
432,838	34,68
433,04	58,84
433,242	38,98
433,444	0,89
433,646	63,96
433,848	19,93
434,05	27,72
434,252	45,74
434,454	7,65
434,656	35,29
434,858	42,46
435,06	47,99
435,262	51,47
435,464	37,75
435,666	32,63
435,868	60,69
436,07	54,75
436,271	33,45
436,473	43,69
436,675	34,27
436,877	47,58
437,079	49,42
437,281	46,15
437,482	48,81
437,684	50,45
437,886	49,01
438,088	37,75
438,29	38,98
438,491	-0,96
438,693	11,74
438,895	0,89
439,097	53,32
439,298	27,31
439,5	38,16
439,702	37,75
439,903	74,61
440,105	17,07
440,307	29,56
440,508	32,63
440,71	45,53
440,912	18,09
441,113	42,87
441,315	29,97
441,517	28,33
441,718	54,75
441,92	46,56
442,121	34,27
442,323	58,84
442,524	60,89
442,726	38,77
442,928	42,05
443,129	43,69
443,331	47,38
443,532	29,56
443,734	36,73
443,935	60,69
444,136	48,61
444,338	66,42
444,539	63,56
444,741	57,21
444,942	24,03
445,144	33,45
445,345	48,4
445,546	57,21
445,748	33,45
445,949	60,48
446,151	46,56
446,352	53,93
446,553	23,62
446,755	22,6
446,956	48,4
447,157	43,69
447,359	43,69
447,56	52,91
447,761	70,93
447,962	34,68
448,164	64,37
448,365	9,08
448,566	53,11
448,767	55,57
448,969	91,2
449,17	54,95
449,371	21,16
449,572	32,63
449,773	43,69
449,974	43,69
450,176	33,86
450,377	54,95
450,578	50,04
450,779	28,33
450,98	54,34
451,181	61,92
451,382	44,3
451,583	47,99
451,784	43,28
451,986	70,11
452,187	54,54
452,388	46,35
452,589	51,27
452,79	37,14
452,991	45,74
453,192	62,74
453,393	32,02
453,594	63,15
453,795	53,93
453,995	23,62
454,196	25,46
454,397	91,41
454,598	42,67
454,799	27,51
455	67,86
455,201	56,39
455,402	68,27
455,603	72,36
455,804	41,85
456,004	20,55
456,205	45,53
456,406	70,11
456,607	51,68
456,808	80,55
457,008	53,52
457,209	58,44
457,41	36,52
457,611	52,7
457,811	61,92
458,012	78,1
458,213	49,22
458,414	63,96
458,614	52,91
458,815	18,91
459,016	35,5
459,216	64,58
459,417	53,73
459,618	60,48
459,818	50,24
460,019	59,25
460,22	52,7
460,42	64,58
460,621	57,21
460,821	48,61
461,022	16,66
461,223	57,21
461,423	71,75
461,624	27,31
461,824	72,16
462,025	75,02
462,225	70,52
462,426	61,51
462,626	47,17
462,827	19,32
463,027	50,45
463,228	51,06
463,428	52,5
463,628	28,13
463,829	63,15
464,029	57
464,23	67,24
464,43	58,64
464,63	58,44
464,831	71,95
465,031	61,3
465,231	52,29
465,432	55,77
465,632	41,44
465,832	61,1
466,033	50,65
466,233	27,1
466,433	52,29
466,634	57,62
466,834	51,68
467,034	60,48
467,234	70,72
467,435	70,31
467,635	91,61
467,835	60,28
468,035	62,74
468,235	52,91
468,436	72,57
468,636	77,69
468,836	51,47
469,036	38,57
469,236	49,22
469,436	68,68
469,636	79,32
469,836	70,11
470,037	48,2
470,237	69,7
470,437	71,34
470,637	67,24
470,837	72,77
471,037	71,95
471,237	85,88
471,437	88,54
471,637	55,57
471,837	90,79
472,037	72,36
472,237	71,95
472,437	61,1
472,637	81,17
472,837	95,91
473,036	79,53
473,236	102,88
473,436	70,31
473,636	85,06
473,836	86,29
474,036	86,7
474,236	67,65
474,436	70,72
474,635	69,7
474,835	86,08
475,035	118,85
475,235	90,38
475,435	66,22
475,634	84,24
475,834	46,56
476,034	58,84
476,234	104,31
476,433	58,64
476,633	94,89
476,833	69,9
477,033	97,96
477,232	100,21
477,432	93,05
477,632	78,51
477,831	76,46
478,031	85,47
478,231	54,75
478,43	73,8
478,63	100,42
478,829	109,43
479,029	95,3
479,229	118,03
479,428	112,3
479,628	108,41
479,827	95,09
480,027	83,83
480,226	97,76
480,426	117,01
480,625	99,8
480,825	135,23
481,024	117,21
481,224	100,83
481,423	85,88
481,623	92,64
481,822	131,34
482,021	136,46
482,221	95,91
482,42	116,8
482,62	120,9
482,819	93,66
483,018	103,49
483,218	103,9
483,417	121,51
483,616	104,31
483,816	122,95
484,015	106,36
484,214	129,91
484,414	91,41
484,613	102,88
484,812	57
485,011	85,67
485,211	107,79
485,41	103,7
485,609	66,01
485,808	116,19
486,008	88,95
486,207	118,85
486,406	96,73
486,605	106,97
486,804	141,79
487,003	139,33
487,203	112,71
487,402	117,42
487,601	122,95
487,8	121,72
487,999	117,42
488,198	119,67
488,397	133,6
488,596	139,74
488,795	120,9
488,994	88,13
489,193	107,59
489,392	133,39
489,591	114,75
489,79	120,49
489,989	150,39
490,188	128,48
490,387	91,41
490,586	131,34
490,785	102,67
490,984	118,03
491,183	111,48
491,382	88,13
491,581	67,24
491,779	153,05
491,978	133,39
492,177	137,9
492,376	110,66
492,575	133,8
492,774	116,8
492,972	111,89
493,171	127,25
493,37	120,9
493,569	141,79
493,768	140,35
493,966	128,68
494,165	131,34
494,364	115,37
494,563	96,73
494,761	167,8
494,96	125,2
495,159	146,91
495,357	144,86
495,556	148,34
495,755	149,16
495,953	164,11
496,152	114,75
496,35	154,08
496,549	137,9
496,748	146,7
496,946	148,75
497,145	107,38
497,343	131,14
497,542	96,94
497,74	141,17
497,939	138,1
498,137	128,68
498,336	145,68
498,534	146,91
498,733	127,45
498,931	118,85
499,13	132,57
499,328	101,44
499,527	96,73
499,725	124,38
499,924	130,73
500,122	104,92
500,32	97,96
500,519	130,73
500,717	113,73
500,915	111,89
501,114	109,43
501,312	119,46
501,51	139,74
501,709	121,92
501,907	142,61
502,105	97,14
502,304	115,98
502,502	124,58
502,7	115,37
502,898	85,26
503,097	137,49
503,295	121,1
503,493	147,73
503,691	154,28
503,889	119,06
504,088	134,21
504,286	125,61
504,484	142,81
504,682	148,75
504,88	151,82
505,078	87,72
505,276	153,46
505,474	115,57
505,672	129,91
505,871	134,42
506,069	151
506,267	119,26
506,465	115,37
506,663	134,42
506,861	111,27
507,059	109,43
507,257	112,71
507,455	118,65
507,653	150,59
507,851	127,66
508,049	115,57
508,246	118,03
508,444	127,45
508,642	168
508,84	96,73
509,038	116,8
509,236	89,97
509,434	119,46
509,632	129,7
509,829	103,9
510,027	134,82
510,225	138,1
510,423	151
510,621	150,39
510,818	132,16
511,016	151,41
511,214	135,44
511,412	107,79
511,609	134,21
511,807	130,52
512,005	111,68
512,203	148,34
512,4	133,19
512,598	140,35
512,796	138,1
512,993	98,99
513,191	131,75
513,389	123,56
513,586	93,25
513,784	132,16
513,981	138,31
514,179	95,91
514,377	135,85
514,574	116,39
514,772	146,09
514,969	141,58
515,167	107,59
515,364	111,89
515,562	143,63
515,759	127,45
515,957	95,3
516,154	116,8
516,352	117,62
516,549	133,39
516,746	85,26
516,944	114,96
517,141	117,83
517,339	116,39
517,536	99,19
517,733	103,29
517,931	124,38
518,128	137,69
518,325	118,65
518,523	125,2
518,72	150,8
518,917	114,75
519,115	128,68
519,312	112,5
519,509	149,57
519,707	137,49
519,904	119,67
520,101	128,27
520,298	110,25
520,495	131,34
520,693	130,93
520,89	131,14
521,087	132,78
521,284	121,92
521,481	129,5
521,678	126,43
521,876	140,15
522,073	151,82
522,27	108,41
522,467	182,75
522,664	119,67
522,861	138,92
523,058	131,14
523,255	141,58
523,452	145,27
523,649	139,53
523,846	142,4
524,043	120,49
524,24	155,51
524,437	147,52
524,634	90,18
524,831	107,79
525,028	148,14
525,225	118,24
525,422	151
525,619	110,66
525,816	125,2
526,013	136,26
526,209	93,46
526,406	127,04
526,603	99,39
526,8	129,5
526,997	144,45
527,194	114,75
527,39	150,39
527,587	143,63
527,784	147,93
527,981	139,74
528,177	127,45
528,374	149,77
528,571	150,59
528,768	130,11
528,964	131,55
529,161	118,44
529,358	114,75
529,554	118,03
529,751	111,07
529,948	126,22
530,144	145,88
530,341	141,79
530,537	101,85
530,734	144,65
530,931	136,67
531,127	150,59
531,324	101,24
531,52	130,73
531,717	131,34
531,913	124,58
532,11	159,81
532,306	145,68
532,503	115,37
532,699	178,65
532,896	128,89
533,092	150,59
533,289	138,72
533,485	166,77
533,682	109,22
533,878	167,59
534,074	169,64
534,271	143,63
534,467	155,3
534,664	172,1
534,86	127,45
535,056	172,92
535,253	132,78
535,449	128,07
535,645	148,34
535,841	157,15
536,038	113,12
536,234	127,66
536,43	130,52
536,626	132,98
536,823	107,18
537,019	134,82
537,215	147,11
537,411	124,79
537,607	153,26
537,804	141,38
538	124,99
538,196	116,19
538,392	119,67
538,588	128,68
538,784	145,88
538,98	132,98
539,176	137,9
539,373	131,55
539,569	131,96
539,765	121,92
539,961	132,78
540,157	132,57
540,353	126,22
540,549	149,98
540,745	120,08
540,941	116,6
541,137	159,2
541,333	127,25
541,528	138,92
541,724	124,58
541,92	162,06
542,116	124,18
542,312	149,98
542,508	109,02
542,704	134,21
542,9	144,86
543,096	111,48
543,291	136,05
543,487	134,62
543,683	128,48
543,879	119,46
544,075	122,33
544,27	122,13
544,466	117,21
544,662	146,29
544,858	131,96
545,053	159,81
545,249	140,35
545,445	142,4
545,64	141,17
545,836	119,67
546,032	144,86
546,227	127,86
546,423	133,39
546,619	137,28
546,814	152,44
547,01	132,98
547,205	108,41
547,401	134,42
547,597	138,92
547,792	128,07
547,988	117,01
548,183	120,69
548,379	138,1
548,574	156,94
548,77	173,74
548,965	130,73
549,161	140,76
549,356	104,92
549,552	128,27
549,747	121,51
549,942	156,74
550,138	114,55
550,333	136,46
550,529	118,65
550,724	152,44
550,919	143,22
551,115	158,38
551,31	132,57
551,505	125,4
551,701	110,66
551,896	116,6
552,091	110,45
552,287	116,19
552,482	148,34
552,677	138,31
552,872	128,27
553,067	129,5
553,263	115,16
553,458	131,96
553,653	118,44
553,848	130,93
554,043	116,39
554,239	124,38
554,434	140,15
554,629	127,66
554,824	123,36
555,019	101,03
555,214	147,93
555,409	122,95
555,604	112,91
555,799	133,39
555,994	146,5
556,189	123,56
556,384	146,7
556,579	137,28
556,774	130,73
556,969	161,04
557,164	116,6
557,359	121,1
557,554	133,39
557,749	145,27
557,944	105,54
558,139	128,68
558,334	152,64
558,529	175,99
558,724	137,28
558,918	103,29
559,113	140,76
559,308	151,82
559,503	173,94
559,698	123,36
559,893	140,35
560,087	143,84
560,282	132,98
560,477	140,97
560,672	118,03
560,866	145,68
561,061	131,96
561,256	136,67
561,45	136,87
561,645	128,27
561,84	130,73
562,034	124,79
562,229	117,42
562,424	146,5
562,618	169,44
562,813	135,23
563,008	156,12
563,202	155,51
563,397	152,23
563,591	136,67
563,786	130,52
563,98	141,58
564,175	179,68
564,369	168,62
564,564	171,69
564,758	144,65
564,953	160,83
565,147	146,7
565,342	170,05
565,536	164,52
565,731	142,61
565,925	160,63
566,119	128,89
566,314	177,42
566,508	193,19
566,703	169,84
566,897	132,78
567,091	133,39
567,286	174,76
567,48	149,57
567,674	142,61
567,868	157,35
568,063	152,64
568,257	168,21
568,451	127,04
568,646	161,86
568,84	170,25
569,034	179,27
569,228	167,59
569,422	150,39
569,616	184,39
569,811	137,28
570,005	169,03
570,199	177,83
570,393	186,23
570,587	163,09
570,781	205,89
570,975	216,13
571,169	186,02
571,364	192,37
571,558	188,69
571,752	198,31
571,946	191,96
572,14	182,54
572,334	206,91
572,528	169,64
572,722	194,63
572,916	211,42
573,109	233,54
573,303	221,04
573,497	225,14
573,691	252,38
573,885	210,6
574,079	209,17
574,273	205,27
574,467	220,02
574,661	230,87
574,854	225,96
575,048	220,63
575,242	237,63
575,436	252,58
575,63	247,67
575,823	243,78
576,017	250,94
576,211	225,14
576,405	279,21
576,598	283,92
576,792	275,11
576,986	271,22
577,18	264,67
577,373	272,24
577,567	277,16
577,761	256,88
577,954	290,06
578,148	288,83
578,341	302,96
578,535	274,7
578,729	289,45
578,922	305,83
579,116	305,22
579,309	285,76
579,503	314,84
579,696	307,47
579,89	329,38
580,083	303,78
580,277	314,64
580,47	323,24
580,664	364,2
580,857	359,08
581,051	341,67
581,244	360,72
581,437	400,65
581,631	388,77
581,824	396,56
582,018	378,12
582,211	377,92
582,404	389,18
582,598	397,58
582,791	416,22
582,984	419,29
583,178	436,08
583,371	432,39
583,564	442,02
583,757	464,96
583,951	460,25
584,144	459,63
584,337	468,85
584,53	495,88
584,723	481,55
584,917	525,58
585,11	527,42
585,303	550,56
585,496	544,42
585,689	572,68
585,882	552,41
586,075	584,15
586,268	594,18
586,462	593,16
586,655	612,82
586,848	607,5
587,041	654,6
587,234	654,8
587,427	652,35
587,62	630,43
587,813	646,2
588,006	685,73
588,199	672,42
588,392	724,64
588,585	718,91
588,777	721,16
588,97	758,23
589,163	772,36
589,356	836,87
589,549	835,03
589,742	843,63
589,935	868,2
590,128	875,37
590,32	926,77
590,513	896,05
590,706	941,11
590,899	965,89
591,092	943,36
591,284	1013,2
591,477	991,08
591,67	1068,9
591,863	1046,38
592,055	1066,04
592,248	1093,89
592,441	1111,5
592,633	1121,13
592,826	1129,93
593,019	1193,01
593,211	1236,22
593,404	1246,67
593,596	1281,28
593,789	1263,26
593,982	1311,59
594,174	1370,57
594,367	1348,45
594,559	1422,18
594,752	1403,13
594,944	1423,82
595,137	1475,02
595,329	1502,87
595,522	1524,58
595,714	1557,96
595,907	1584,17
596,099	1620,83
596,292	1646,43
596,484	1709,92
596,676	1682,07
596,869	1730,6
597,061	1784,05
597,253	1846,31
597,446	1866,79
597,638	1969,8
597,83	1958,75
598,023	1999,7
598,215	2075,89
598,407	2095,96
598,6	2131,39
598,792	2190,58
598,984	2180,34
599,176	2279,25
599,369	2287,03
599,561	2387,18
599,753	2325,95
599,945	2452,72
600,137	2476,27
600,329	2570,68
600,522	2590,95
600,714	2690,28
600,906	2683,11
601,098	2752,74
601,29	2751,31
601,482	2829,75
601,674	2898,97
601,866	3003
602,058	3040,69
602,25	3093,73
602,442	3187,32
602,634	3292,59
602,826	3283,78
603,018	3369,59
603,21	3445,57
603,402	3527,49
603,594	3541,62
603,786	3672,49
603,978	3737,41
604,17	3808,47
604,362	3875,85
604,554	3939,13
604,745	3976,4
604,937	4179,77
605,129	4230,56
605,321	4234,65
605,513	4406,89
605,704	4461,57
605,896	4569,91
606,088	4648,34
606,28	4708,96
606,471	4851,5
606,663	4956,36
606,855	5106,47
607,047	5154,81
607,238	5300,83
607,43	5346,09
607,622	5532,66
607,813	5629,52
608,005	5749,54
608,197	5776,98
608,388	5962,52
608,58	6032,16
608,771	6212,17
608,963	6288,77
609,154	6460,8
609,346	6450,97
609,537	6730,92
609,729	6840,69
609,921	6967,46
610,112	7008,83
610,303	7205,23
610,495	7306,61
610,686	7456,11
610,878	7648,62
611,069	7833,75
611,261	7949,26
611,452	8109,61
611,643	8325,68
611,835	8478,45
612,026	8654,78
612,217	8905,25
612,409	9040,01
612,6	9323,24
612,791	9448,37
612,983	9718,29
613,174	9854,89
613,365	10050,68
613,557	10202,84
613,748	10563,08
613,939	10674,49
614,13	11053,98
614,321	11239,73
614,513	11579,49
614,704	11759,71
614,895	12022,67
615,086	12227,26
615,277	12656,52
615,468	12668,8
615,659	13019,82
615,851	13220,94
616,042	13495,36
616,233	13730,06
616,424	14242,67
616,615	14472,04
616,806	14821,42
616,997	15071,28
617,188	15614,4
617,379	16080,51
617,57	16546,22
617,761	16821,26
617,952	17319,54
618,143	17706,6
618,334	18147,12
618,524	18499,98
618,715	18940,09
618,906	19542,61
619,097	19849,19
619,288	20477,09
619,479	20963,69
619,67	21272,52
619,86	21899,82
620,051	22142,71
620,242	22709,99
620,433	23184,92
620,624	23716,16
620,814	23915,63
621,005	24360,86
621,196	24761,44
621,386	25432,36
621,577	25894,38
621,768	26443,44
621,958	27047,18
622,149	27515,14
622,34	28069,94
622,53	28402,32
622,721	28717,51
622,912	29295,85
623,102	29720,6
623,293	30397,66
623,483	30875,86
623,674	31580,16
623,864	32311,28
624,055	32823,07
624,245	33197,85
624,436	33736,46
624,626	34244,15
624,817	34517,56
625,007	34512,44
625,198	35435,46
625,388	35646,19
625,579	36139,55
625,769	36613,04
625,959	37352,56
626,15	37422,4
626,34	37887,08
626,531	38538,95
626,721	39180,78
626,911	39660,62
627,101	40401,99
627,292	40744,2
627,482	41530,83
627,672	42095,25
627,863	42770,87
628,053	43117,8
628,243	43985,11
628,433	44521,68
628,623	45009,71
628,814	45267,55
629,004	46167,63
629,194	46509,03
629,384	46749,46
629,574	47524,82
629,764	48309,6
629,955	48523,62
630,145	49282,18
630,335	50108,95
630,525	50381,12
630,715	50562,98
630,905	51695,31
631,095	52223,27
631,285	53133,8
631,475	52908,11
631,665	53789,56
631,855	53451,23
632,045	53700,06
632,235	53946,23
632,425	53697,6
632,615	53717,67
632,805	53772,97
632,994	53105,54
633,184	54140,58
633,374	53400,85
633,564	53148,34
633,754	52530,67
633,944	51737,7
634,133	50521,41
634,323	50582,85
634,513	49546,37
634,703	49018
634,893	47800,27
635,082	46962,65
635,272	45669,57
635,462	44843,42
635,651	43302,11
635,841	41931
636,031	40252,07
636,221	38721,63
636,41	37562,07
636,6	36240,92
636,789	35091,81
636,979	33677,69
637,169	32199,05
637,358	30868,69
637,548	29762,38
637,737	28401,5
637,927	27101,25
638,116	26272,23
638,306	24982,42
638,495	23931,4
638,685	22669,24
638,874	21507,22
639,064	20420,98
639,253	19693,75
639,443	18582,52
639,632	17898,09
639,822	16943,53
640,011	16232,27
640,2	15458,55
640,39	14807,09
640,579	14189,01
640,768	13649,37
640,958	13075,32
641,147	12640,54
641,336	11993,18
641,526	11542,42
641,715	10967,35
641,904	10585,61
642,093	10061,74
642,283	9728,53
642,472	9251,36
642,661	8939,04
642,85	8570,82
643,039	8264,65
643,228	7903,18
643,418	7661,52
643,607	7400,61
643,796	7151,17
643,985	6860,35
644,174	6660,27
644,363	6438,88
644,552	6258,25
644,741	5980,14
644,93	5924,23
645,119	5647,75
645,308	5624,61
645,497	5370,25
645,686	5189,42
645,875	5022,3
646,064	4909,66
646,253	4694,63
646,442	4635,03
646,631	4521,98
646,82	4363,88
647,009	4209,67
647,198	4063,03
647,387	4032,11
647,575	3918,65
647,764	3821,17
647,953	3693,38
648,142	3605,52
648,331	3508,85
648,519	3406,86
648,708	3305,49
648,897	3164,18
649,086	3078,57
649,274	3029,63
649,463	2877,67
649,652	2826,47
649,84	2762,57
650,029	2647,27
650,218	2602,22
650,406	2481,8
650,595	2415,44
650,784	2375,51
650,972	2303,01
651,161	2232,35
651,349	2177,06
651,538	2111,73
651,726	2036,57
651,915	1964,07
652,104	1876,62
652,292	1850,41
652,481	1774,63
652,669	1686,37
652,857	1652,98
653,046	1621,45
653,234	1576,59
653,423	1508,4
653,611	1440
653,8	1389,21
653,988	1356,64
654,176	1280,87
654,365	1239,5
654,553	1167,21
654,741	1133,62
654,93	1109,86
655,118	1068,29
655,306	1045,76
655,494	1022
655,683	970,81
655,871	957,29
656,059	913,87
656,247	875,57
656,436	900,56
656,624	856,73
656,812	816,39
657	798,57
657,188	804,1
657,376	796,11
657,564	748,6
657,753	761,91
657,941	698,63
658,129	687,37
658,317	627,16
658,505	646,82
658,693	639,03
658,881	618,15
659,069	599,71
659,257	553,63
659,445	577,6
659,633	577,39
659,821	545,65
660,009	485,03
660,197	535
660,384	497,32
660,572	486,67
660,76	511,04
660,948	464,75
661,136	435,47
661,324	464,55
661,512	448,78
661,699	405,77
661,887	371,36
662,075	420,52
662,263	374,03
662,451	356,41
662,638	354,37
662,826	355,19
663,014	339,83
663,201	352,52
663,389	312,18
663,577	329,38
663,764	299,48
663,952	305,63
664,14	317,3
664,327	291,29
664,515	285,35
664,702	288,22
664,89	289,65
665,078	252,79
665,265	258,73
665,453	270,2
665,64	250,13
665,828	288,42
666,015	208,55
666,203	241,93
666,39	214,08
666,578	226,98
666,765	220,63
666,952	204,87
667,14	211,21
667,327	188,69
667,515	199,34
667,702	179,47
667,889	169,44
668,077	203,64
668,264	162,88
668,451	176,19
668,638	180,08
668,826	157,76
669,013	138,72
669,2	176,19
669,388	169,84
669,575	174,96
669,762	172,71
669,949	163,7
670,136	201,59
670,323	118,44
670,511	136,26
670,698	147,73
670,885	166,98
671,072	145,68
671,259	117,21
671,446	145,68
671,633	114,34
671,82	89,56
672,007	107,18
672,194	106,97
672,381	131,34
672,568	109,84
672,755	122,95
672,942	108,41
673,129	113,53
673,316	125,4
673,503	118,65
673,69	121,31
673,877	102,26
674,064	151,82
674,251	119,87
674,437	126,63
674,624	90,79
674,811	91,2
674,998	126,43
675,185	91,61
675,372	120,28
675,558	67,65
675,745	77,69
675,932	97,55
676,119	105,74
676,305	113,73
676,492	84,03
676,679	80,55
676,865	98,37
677,052	78,92
677,239	91
677,425	54,34
677,612	58,03
677,798	94,48
677,985	42,67
678,172	77,48
678,358	61,3
678,545	69,29
678,731	90,18
678,918	68,88
679,104	79,12
679,291	77,07
679,477	58,84
679,664	61,3
679,85	79,12
680,036	62,12
680,223	33,25
680,409	78,1
680,596	55,36
680,782	57,82
680,968	67,24
681,155	80,96
681,341	77,48
681,527	64,78
681,714	73,59
681,9	68,68
682,086	62,94
682,272	47,79
682,459	63,15
682,645	61,51
682,831	36,11
683,017	50,86
683,204	49,63
683,39	18,09
683,576	82,19
683,762	60,69
683,948	74
684,134	16,25
684,32	73,59
684,506	72,77
684,693	18,5
684,879	46,35
685,065	17,48
685,251	33,65
685,437	23,42
685,623	47,58
685,809	32,63
685,995	23,01
686,181	10,72
686,366	19,73
686,552	27,31
686,738	37,75
686,924	57,82
687,11	25,87
687,296	48,2
687,482	52,7
687,668	60,28
687,853	19,52
688,039	6,83
688,225	47,58
688,411	32,84
688,597	50,65
688,782	64,58
688,968	70,72
689,154	43,69
689,34	46,15
689,525	67,86
689,711	57
689,897	46,76
690,082	46,76
690,268	76,46
690,454	50,04
690,639	36,32
690,825	24,85
691,01	17,27
691,196	69,7
691,381	40,82
691,567	33,25
691,753	45,53
691,938	19,52
692,124	53,11
692,309	53,73
692,494	41,85
692,68	48,61
692,865	32,43
693,051	24,03
693,236	81,78
693,422	10,92
693,607	71,95
693,792	52,29
693,978	80,96
694,163	34,27
694,348	27,72
694,534	47,58
694,719	73,39
694,904	47,99
695,089	63,76
695,275	63,96
695,46	46,15
695,645	62,74
695,83	75,43
696,016	27,72
696,201	19,73
696,386	54,75
696,571	38,37
696,756	16,25
696,941	87,11
697,126	41,23
697,311	29,15
697,497	48,81
697,682	25,46
697,867	38,37
698,052	46,76
698,237	19,73
698,422	10,31
698,607	52,7
698,792	42,26
698,977	64,78
699,162	58,44
699,347	30,38
699,531	86,7
699,716	25,46
699,901	12,77
700,086	30,17
700,271	35,29
700,456	24,44
700,641	-10,38
700,825	39,8
701,01	21,16
701,195	37,75
701,38	38,77
701,565	36,52
701,749	12,77
701,934	35,7
702,119	28,54
702,303	35,09
702,488	33,45
702,673	31,61
702,857	70,31
703,042	34,88
703,227	32,84
703,411	21,57
703,596	34,06
703,78	18,09
703,965	-1,98
704,15	57,41
704,334	26,9
704,519	12,36
704,703	18,91
704,888	24,44
705,072	34,47
705,257	31,4
705,441	35,5
705,625	13,18
705,81	53,52
705,994	33,86
706,179	37,34
706,363	47,38
706,547	26,08
706,732	46,97
706,916	45,12
707,1	21,57
707,285	8,26
707,469	41,85
707,653	28,33
707,837	-8,53
708,022	50,45
708,206	0,89
708,39	31,61
708,574	20,14
708,759	37,14
708,943	47,17
709,127	73,18
709,311	25,46
709,495	60,28
709,679	28,74
709,863	42,87
710,047	7,44
710,231	33,65
710,415	28,13
710,6	13,18
710,784	35,7
710,968	54,75
711,152	47,79
711,336	15,43
711,519	28,74
711,703	47,99
711,887	11,54
712,071	22,8
712,255	29,15
712,439	0,48
712,623	30,79
712,807	18,09
712,991	49,01
713,174	42,05
713,358	15,22
713,542	34,68
713,726	44,92
713,91	52,29
714,093	8,87
714,277	25,05
714,461	33,45
714,645	29,76
714,828	41,23
715,012	25,46
715,196	19,73
715,379	31,4
715,563	53,11
715,747	16,45
715,93	45,94
716,114	14,4
716,297	27,1
716,481	13,18
716,664	-6,49
716,848	1,5
717,031	26,08
717,215	27,31
717,398	20,75
717,582	16,25
717,765	-2,59
717,949	3,96
718,132	18,09
718,316	37,55
718,499	-8,94
718,682	22,6
718,866	13,79
719,049	33,04
719,233	26,49
719,416	27,51
719,599	54,34
719,782	23,42
719,966	13,99
720,149	49,42
720,332	6,62
720,515	25,26
720,699	29,76
720,882	39,39
721,065	17,89
721,248	37,75
721,431	25,87
721,615	14,81
721,798	10,1
721,981	10,51
722,164	58,23
722,347	26,49
722,53	-1,37
722,713	0,27
722,896	18,7
723,079	-2,39
723,262	9,69
723,445	13,58
723,628	30,58
723,811	41,85
723,994	31,4
724,177	5,6
724,36	31,4
724,543	2,53
724,726	14,61
724,909	43,49
725,091	4,78
725,274	26,69
725,457	-6,08
725,64	42,05
725,823	33,86
726,006	28,13
726,188	2,12
726,371	-6,69
726,554	17,89
726,737	1,09
726,919	3,55
727,102	11,95
727,285	13,18
727,467	12,56
727,65	15,63
727,833	29,76
728,015	2,53
728,198	57,21
728,38	-0,34
728,563	13,38
728,746	18,5
728,928	6,83
729,111	17,07
729,293	7,03
729,476	25,67
729,658	51,68
729,841	28,94
730,023	28,94
730,205	27,31
730,388	33,04
730,57	49,22
730,753	24,64
730,935	-11,61
731,117	28,94
731,3	17,89
731,482	-8,33
731,664	34,06
731,847	26,49
732,029	31,2
732,211	-0,34
732,394	25,67
732,576	31,61
732,758	40
732,94	3,55
733,122	21,57
733,305	33,45
733,487	0,48
733,669	0,48
733,851	41,23
734,033	36,11
734,215	34,88
734,397	-1,37
734,58	35,91
734,762	34,27
734,944	43,69
735,126	26,49
735,308	12,97
735,49	18,09
735,672	26,08
735,854	14,81
736,036	27,51
736,218	38,57
736,399	30,17
736,581	56,59
736,763	35,91
736,945	22,19
737,127	58,03
737,309	21,98
737,491	29,76
737,672	18,5
737,854	30,79
738,036	17,68
738,218	26,9
738,4	28,33
738,581	68,68
738,763	-10,38
738,945	0,48
739,127	18,5
739,308	17,89
739,49	14,81
739,672	24,85
739,853	6,83
740,035	12,36
740,216	-3,82
740,398	-17,54
740,58	14,61
740,761	3,75
740,943	15,43
741,124	25,67
741,306	8,67
741,487	23,21
741,669	39,18
741,85	16,04
742,032	14,4
742,213	-4,03
742,394	37,34
742,576	23,21
742,757	13,58
742,939	20,34
743,12	13,99
743,301	26,28
743,483	6,42
743,664	41,03
743,845	13,99
744,027	27,72
744,208	30,17
744,389	46,76
744,57	6,01
744,752	5,8
744,933	31,61
745,114	11,54
745,295	24,64
745,476	7,44
745,657	23,21
745,839	3,35
746,02	22,6
746,201	42,26
746,382	25,67
746,563	44,51
746,744	42,87
746,925	17,07
747,106	29,76
747,287	10,1
747,468	21,98
747,649	48,61
747,83	5,8
748,011	14,61
748,192	-6,49
748,373	13,99
748,554	33,65
748,735	34,47
748,915	26,28
749,096	62,33
749,277	15,43
749,458	29,76
749,639	38,37
749,82	20,14
750	28,13
750,181	5,6
750,362	4,78
750,543	25,87
750,723	28,74
750,904	19,11
751,085	23,42
751,265	12,77
751,446	33,86
751,627	15,43
751,807	26,28
751,988	14,61
752,169	30,17
752,349	5,8
752,53	12,56
752,71	31,61
752,891	28,94
753,071	62,74
753,252	17,27
753,432	16,66
753,613	21,98
753,793	17,89
753,974	7,65
754,154	-1,37
754,334	29,97
754,515	43,69
754,695	36,93
754,876	43,28
755,056	12,15
755,236	30,38
755,417	10,51
755,597	-2,18
755,777	21,37
755,957	59,66
756,138	35,29
756,318	24,23
756,498	27,92
756,678	27,72
756,859	28,33
757,039	5,19
757,219	40,41
757,399	23,82
757,579	9,28
757,759	20,75
757,939	0,68
758,119	32,63
758,3	14,2
758,48	1,3
758,66	0,07
758,84	16,45
759,02	29,15
759,2	-10,38
759,38	17,07
759,56	-12,63
759,74	-15,7
759,919	15,02
760,099	-1,98
760,279	18,3
760,459	6,01
760,639	1,3
760,819	20,34
760,999	8,87
761,178	21,57
761,358	6,21
761,538	-16,11
761,718	0,89
761,898	12,97
762,077	18,3
762,257	34,47
762,437	13,58
762,616	12,15
762,796	-10,17
762,976	-8,53
763,155	-23,07
763,335	-5,26
763,515	29,56
763,694	9,49
763,874	0,48
764,053	-8,53
764,233	-1,98
764,413	26,9
764,592	32,63
764,772	18,5
764,951	28,94
765,131	-4,03
765,31	-15,29
765,489	29,97
765,669	28,74
765,848	11,54
766,028	11,95
766,207	25,46
766,386	5,8
766,566	15,22
766,745	8,87
766,924	33,65
767,104	7,03
767,283	16,86
767,462	9,08
767,642	3,14
767,821	34,88
768	53,32
768,179	40,82
768,358	13,38
768,538	15,63
768,717	5,6
768,896	35,91
769,075	-2,59
769,254	4,37
769,433	14,61
769,612	8,67
769,791	-7,1
769,97	6,62
770,149	3,14
770,328	13,99
770,507	47,38
770,686	15,43
770,865	22,6
771,044	31,2
771,223	51,06
771,402	30,38
771,581	15,02
771,76	40,21
771,939	4,16
772,118	18,09
772,297	46,56
772,475	20,14
772,654	22,39
772,833	-2,39
773,012	20,75
773,191	2,32
773,369	29,35
773,548	9,49
773,727	29,97
773,906	65,6
774,084	38,77
774,263	36,93
774,442	3,35
774,62	30,58
774,799	11,95
774,977	11,74
775,156	30,38
775,335	24,44
775,513	26,69
775,692	2,53
775,87	10,92
776,049	9,9
776,227	18,7
776,406	27,51
776,584	8,67
776,763	23,21
776,941	-11,81
777,119	18,5
777,298	8,46
777,476	36,11
777,655	16,25
777,833	18,09
778,011	22,8
778,19	33,25
778,368	5,39
778,546	15,84
778,725	0,48
778,903	4,98
779,081	13,99
779,259	-8,12
779,437	32,63
779,616	40,21
779,794	10,51
779,972	14,61
780,15	9,28
780,328	-6,08
780,506	-3
780,685	36,32
780,863	20,55
781,041	10,92
781,219	17,89
781,397	7,44
781,575	3,14
781,753	1,09
781,931	26,69
782,109	2,12
782,287	-8,74
782,465	45,53
782,643	11,95
782,82	38,77
782,998	-2,59
783,176	24,44
783,354	22,8
783,532	19,11
783,71	21,98
783,888	1,09
784,065	2,73
784,243	3,35
784,421	7,85
784,599	10,92
784,776	29,15
784,954	10,72
785,132	1,5
785,31	22,8
785,487	17,68
785,665	42,26
785,842	26,08
786,02	30,58
786,198	28,74
786,375	10,92
786,553	-4,03
786,73	16,86
786,908	21,57
787,085	19,11
787,263	9,08
787,44	25,26
787,618	1,3
787,795	-7,3
787,973	-9,76
788,15	2,94
788,328	-6,08
788,505	-2,39
788,682	13,38
788,86	6,42
789,037	38,37
789,215	-40,07
789,392	2,94
789,569	18,91
789,746	-18,16
789,924	20,14
790,101	20,96
790,278	16,86
790,455	7,03
790,633	23,42
790,81	-11,4
790,987	-3,21
791,164	19,11
791,341	16,86
791,518	1,71
791,695	24,85
791,873	4,16
792,05	38,16
792,227	5,39
792,404	-11,81
792,581	-32,49
792,758	4,98
792,935	33,86
793,112	17,89
793,289	-26,35
793,466	30,58
793,643	-17,13
793,82	-4,23
793,996	0,68
794,173	23,82
794,35	9,49
794,527	25,26
794,704	4,78
794,881	35,91
795,057	-19,18
795,234	19,93
795,411	5,19
795,588	2,53
795,765	28,33
795,941	29,56
796,118	7,85
796,295	4,57
796,471	22,19
796,648	13,79
796,825	15,84
797,001	-28,6
797,178	1,5
797,354	1,91
797,531	8,87
797,708	10,72
797,884	6,42
798,061	4,78
798,237	-1,37
798,414	18,09
798,59	-9,76
798,767	12,77
798,943	13,58
799,119	16,04
799,296	4,57
799,472	-20,82
799,649	-31,88
799,825	28,54
800,001	10,1
800,178	12,56
800,354	18,7
800,53	2,32
800,707	-2,59
800,883	0,27
801,059	-8,12
801,235	16,04
801,411	43,28
801,588	10,51
801,764	-11,81
801,94	-8,33
802,116	19,32
802,292	9,28
802,468	16,86
802,645	-4,64
802,821	38,16
802,997	41,23
803,173	12,56
803,349	26,08
803,525	22,19
803,701	17,48
803,877	14,4
804,053	2,94
804,229	1,5
804,405	0,07
804,581	25,05
804,756	-7,51
804,932	2,73
805,108	26,49
805,284	-1,98
805,46	-14,88
805,636	17,07
805,812	4,37
805,987	-4,64
806,163	-20,21
806,339	-9,15
806,515	-3,62
806,69	-5,46
806,866	1,09
807,042	8,46
807,217	-6,08
807,393	2,94
807,569	13,18
807,744	15,84
807,92	-6,89
808,096	44,1
808,271	-16,52
808,447	32,84
808,622	-3,62
808,798	-1,16
808,973	17,27
809,149	-20,41
809,324	-31,68
809,5	-5,26
809,675	-0,34
809,851	-11,4
810,026	-3
810,201	-5,87
810,377	-5,67
810,552	-10,99
810,728	-10,99
810,903	-19,59
811,078	-20,21
811,253	3,75
811,429	43,69
811,604	0,89
811,779	2,12
811,955	-6,49
812,13	11,95
812,305	-9,35
812,48	6,62
812,655	-23,48
812,83	-0,96
813,006	29,15
813,181	11,74
813,356	-35,57
813,531	24,44
813,706	-6,89
813,881	16,86
814,056	0,89
814,231	12,36
814,406	-0,14
814,581	27,1
814,756	-1,77
814,931	5,19
815,106	-7,71
815,281	-20,41
815,456	-14,06
815,631	23,21
815,805	36,11
815,98	27,31
816,155	-5,05
816,33	16,04
816,505	-2,8
816,68	-12,63
816,854	21,98
817,029	-1,57
817,204	1,09
817,379	6,01
817,553	-27,99
817,728	-14,88
817,903	-11,2
818,077	-0,34
818,252	27,72
818,427	1,5
818,601	2,94
818,776	12,36
818,95	12,77
819,125	29,76
819,299	-23,48
819,474	21,98
819,648	-12,42
819,823	12,36
819,997	9,08
820,172	1,5
820,346	25,46
820,521	3,75
820,695	4,37
820,87	6,62
821,044	-7,3
821,218	-17,95
821,393	33,25
821,567	-16,52
821,741	-5,26
821,916	-7,3
822,09	8,87
822,264	1,5
822,438	15,22
822,613	-23,69
822,787	12,15
822,961	-7,92
823,135	8,87
823,309	10,1
823,483	-7,71
823,658	10,92
823,832	-18,57
824,006	-0,55
824,18	16,25
824,354	23,01
824,528	11,95
824,702	-6,69
824,876	-0,55
825,05	0,27
825,224	-5,87
825,398	-21,44
825,572	15,63
825,746	-9,15
825,92	-10,38
826,093	-29,01
826,267	-3,21
826,441	18,91
826,615	15,43
826,789	-18,36
826,963	-6,49
827,136	23,82
827,31	4,37
827,484	-1,77
827,658	18,5
827,831	4,57
828,005	12,36
828,179	-22,66
828,353	-20,21
828,526	-12,01
828,7	-18,77
828,873	-21,03
829,047	-5,26
829,221	7,65
829,394	-17,95
829,568	-6,28
829,741	-0,55
829,915	-8,94
830,088	12,56
830,262	-1,57
830,435	-9,15
830,609	-0,55
830,782	15,43
830,956	7,85
831,129	-1,77
831,302	4,57
831,476	14,2
831,649	-4,03
831,822	-3
831,996	-18,16
832,169	18,09
832,342	-20
832,516	20,55
832,689	-11,61
832,862	-12,01
833,035	26,28
833,209	9,08
833,382	-4,85
833,555	-6,69
833,728	-5,05
833,901	6,42
834,074	-12,83
834,247	-6,89
834,42	17,48
834,594	-4,64
834,767	19,52
834,94	1,5
835,113	-14,68
835,286	9,08
835,459	12,56
835,632	19,11
835,805	-30,45
835,977	0,48
836,15	36,11
836,323	11,13
836,496	15,84
836,669	-4,64
836,842	-4,44
837,015	18,3
837,188	7,65
837,36	-15,09
837,533	3,75
837,706	6,62
837,879	3,75
838,051	-13,04
838,224	13,99
838,397	-7,1
838,569	-16,73
838,742	8,06
838,915	-22,66
839,087	21,78
839,26	-32,49
839,433	-11,81
839,605	-19,59
839,778	-15,09
839,95	13,79
840,123	12,56
840,295	-10,79
840,468	1,5
840,64	21,16
840,813	-2,8
840,985	6,62
841,158	-21,44
841,33	11,95
841,502	6,42
841,675	0,07
841,847	7,44
842,019	7,85
842,192	30,38
842,364	-2,39
842,536	10,51
842,709	-13,65
842,881	4,78
843,053	2,73
843,225	-15,5
843,398	-22,25
843,57	7,85
843,742	14,81
843,914	18,7
844,086	-15,29
844,258	-5,26
844,43	-22,25
844,602	1,5
844,775	-8,53
844,947	5,19
845,119	34,88
845,291	-5,87
845,463	9,28
845,635	6,83
845,807	2,94
845,979	-3
846,15	-23,89
846,322	-0,96
846,494	-9,35
846,666	3,35
846,838	-25,94
847,01	33,86
847,182	-10,58
847,354	-31,47
847,525	18,09
847,697	-42,32
847,869	12,97
848,041	-14,47
848,212	3,75
848,384	-10,58
848,556	9,69
848,727	5,6
848,899	18,7
849,071	10,31
849,242	-2,59
849,414	22,39
849,585	-20,62
849,757	1,3
849,929	16,45
850,1	-11,4
850,272	-29,42
850,443	-14,47
850,615	17,68
850,786	7,03
850,958	-13,65
851,129	-1,77
851,3	9,49
851,472	-11,81
851,643	-15,29
851,815	-26,56
851,986	-9,56
852,157	-7,71
852,329	-7,1
852,5	10,1
852,671	-10,58
852,842	5,8
853,014	18,09
853,185	0,48
853,356	2,73
853,527	-9,35
853,698	25,05
853,87	12,36
854,041	18,7
854,212	5,6
854,383	20,96
854,554	2,32
854,725	-20,82
854,896	-23,28
855,067	-7,92
855,238	17,89
855,409	-9,15
855,58	-6,69
855,751	-18,57
855,922	21,37
856,093	11,33
856,264	18,3
856,435	0,27
856,606	12,15
856,777	-3
856,948	-0,96
857,118	-1,77
857,289	3,55
857,46	14,61
857,631	5,19
857,802	17,07
857,972	7,65
858,143	41,64
858,314	-9,76
858,484	12,36
858,655	-10,58
858,826	25,05
858,996	14,4
859,167	-18,98
859,338	-19,59
859,508	-2,59
859,679	-12,01
859,849	-20
860,02	6,42
860,19	3,35
860,361	13,58
860,531	-0,34
860,702	-27,37
860,872	5,8
861,043	1,91
861,213	-7,92
861,384	27,1
861,554	8,06
861,724	-25,33
861,895	15,84
862,065	-22,87
862,235	-6,69
862,406	-6,69
862,576	-11,61
862,746	-25,33
862,916	-1,98
863,087	2,32
863,257	-8,74
863,427	-27,78
863,597	-7,92
863,767	26,28
863,937	21,57
864,108	-28,6
864,278	-0,14
864,448	-18,77
864,618	-17,75
864,788	15,84
864,958	16,86
865,128	-0,34
865,298	-10,38
865,468	26,9
865,638	9,08
865,808	-11,81
865,978	-9,35
866,148	-11,4
866,318	-21,64
866,487	-14,47
866,657	-16,52
866,827	7,24
866,997	7,65
867,167	-18,77
867,337	-22,05
867,506	8,26
867,676	12,15
867,846	-5,26
868,016	-4,64
868,185	-13,86
868,355	3,55
868,525	2,73
868,694	-5,46
868,864	30,38
869,034	20,55
869,203	-7,1
869,373	14,4
869,542	-16,73
869,712	15,43
869,881	12,97
870,051	4,57
870,22	-10,38
870,39	39,59
870,559	9,08
870,729	-16,73
870,898	-8,53
871,068	-3,21
871,237	26,28
871,406	-1,57
871,576	17,27
871,745	-18,77
871,914	-2,59
872,084	6,83
872,253	37,55
872,422	1,91
872,591	0,68
872,761	-28,6
872,93	-32,08
873,099	-13,86
873,268	-1,98
873,437	-19,8
873,607	-5,26
873,776	-0,34
873,945	17,68
874,114	3,35
874,283	-14,27
874,452	-10,79
874,621	18,7
874,79	9,69
874,959	-34,34
875,128	0,48
875,297	22,39
875,466	-1,37
875,635	8,87
875,804	18,5
875,973	-15,29
876,142	-21,03
876,31	8,26
876,479	-18,98
876,648	-12,83
876,817	-13,04
876,986	-1,98
877,155	-7,3
877,323	2,73
877,492	5,8
877,661	20,34
877,829	-26,76
877,998	-31,88
878,167	-7,3
878,335	10,51
878,504	10,1
878,673	6,42
878,841	13,58
879,01	17,68
879,178	-32,08
879,347	-14,68
879,515	-4,85
879,684	6,62
879,852	-14,88
880,021	-9,76
880,189	-17,54
880,358	5,8
880,526	11,33
880,695	-10,17
880,863	-2,39
881,031	-6,49
881,2	-28,19
881,368	-30,65
881,536	1,5
881,705	15,84
881,873	-33,93
882,041	24,23
882,21	-23,07
882,378	-11,61
882,546	4,16
882,714	-20,82
882,882	5,39
883,05	-10,58
883,219	-22,66
883,387	-9,35
883,555	-31,88
883,723	-29,42
883,891	10,51
884,059	16,25
884,227	2,73
884,395	-32,9
884,563	-27,58
884,731	-4,23
884,899	-11,81
885,067	12,36
885,235	16,04
885,403	-7,92
885,571	-7,3
885,739	-9,97
